#wavelength flux
3090.3069 8.32409e-17
3092.2654 6.46272e-17
3094.2244 5.88917e-17
3096.1841 5.23625e-17
3098.144 4.66273e-17
3100.1047 2.4593e-17
3102.0662 7.67008e-17
3104.0278 3.23657e-17
3105.9905 3.53444e-17
3107.9534 3.94288e-17
3109.917 1.87922e-17
3111.8811 2.49031e-17
3113.8457 5.47358e-17
3115.811 2.51517e-17
3117.7769 4.30392e-17
3119.7434 3.66158e-17
3121.7102 2.56866e-17
3123.6777 6.4155e-17
3125.646 5.44977e-17
3127.6145 1.50198e-17
3129.5837 6.63091e-17
3131.5537 3.65917e-17
3133.5239 3.39337e-17
3135.4949 1.47723e-17
3137.4663 4.63327e-17
3139.4382 7.88186e-18
3141.4109 2.6963e-17
3143.384 2.75275e-17
3145.3579 9.58332e-17
3147.332 5.02965e-17
3149.3069 2.94573e-17
3151.2822 3.27647e-17
3153.2581 3.53227e-17
3155.2346 4.90504e-17
3157.2117 4.15255e-17
3159.1892 3.85145e-17
3161.1672 3.86704e-17
3163.146 2.47143e-17
3165.1252 3.91312e-17
3167.105 3.12945e-17
3169.0852 2.65866e-17
3171.0662 5.43343e-17
3173.0476 4.24764e-17
3175.0295 3.77598e-17
3177.0122 2.95292e-17
3178.9951 3.79485e-17
3180.9788 2.98154e-17
3182.9629 4.46804e-17
3184.9475 5.52399e-17
3186.9329 4.44798e-17
3188.9185 4.03527e-17
3190.9048 2.07795e-17
3192.8916 3.6398e-17
3194.8789 4.317e-17
3196.8669 2.71058e-17
3198.8555 4.23024e-17
3200.8445 4.92798e-17
3202.834 3.21191e-17
3204.824 6.00722e-17
3206.8147 2.72986e-17
3208.8057 7.5615e-17
3210.7974 5.31353e-17
3212.7896 5.22385e-17
3214.7822 5.31534e-17
3216.7754 4.96198e-17
3218.7693 5.01833e-17
3220.7637 3.70971e-17
3222.7585 3.29371e-17
3224.7539 4.05231e-17
3226.7498 4.7999e-17
3228.7461 3.99478e-17
3230.7432 2.07018e-17
3232.7405 6.13025e-17
3234.7385 4.51723e-17
3236.7371 3.32009e-17
3238.7361 4.9008e-17
3240.7356 3.39089e-17
3242.7356 3.15352e-17
3244.7363 3.38782e-17
3246.7375 3.14623e-17
3248.739 3.69454e-17
3250.7412 3.38641e-17
3252.7439 4.88077e-17
3254.7471 3.61338e-17
3256.7507 3.74537e-17
3258.7549 2.71554e-17
3260.7598 4.16462e-17
3262.7649 3.65834e-17
3264.7708 5.14465e-17
3266.7771 4.35058e-17
3268.7837 4.21132e-17
3270.791 3.25028e-17
3272.7988 4.18028e-17
3274.8071 2.81408e-17
3276.8162 3.92569e-17
3278.8254 3.25823e-17
3280.8352 4.8172e-17
3282.8457 5.2113e-17
3284.8564 4.11736e-17
3286.8679 4.57233e-17
3288.8796 3.62811e-17
3290.8921 4.64335e-17
3292.9048 3.79855e-17
3294.9182 3.70259e-17
3296.9321 3.58885e-17
3298.9463 3.49629e-17
3300.9612 3.37071e-17
3302.9766 3.86266e-17
3304.9924 5.55712e-17
3307.0088 4.75503e-17
3309.0256 3.50143e-17
3311.0432 3.50295e-17
3313.0608 2.6717e-17
3315.0791 4.78305e-17
3317.0981 3.97219e-17
3319.1174 3.16718e-17
3321.1372 3.95662e-17
3323.1575 3.87889e-17
3325.1782 5.43888e-17
3327.1997 4.055e-17
3329.2214 2.99184e-17
3331.2437 3.76258e-17
3333.2664 4.52555e-17
3335.2898 4.61408e-17
3337.3135 3.45361e-17
3339.3376 3.50562e-17
3341.3623 3.31583e-17
3343.3875 3.28718e-17
3345.4131 3.61419e-17
3347.4392 3.55853e-17
3349.4658 3.38698e-17
3351.4929 3.8138e-17
3353.5205 4.28923e-17
3355.5486 3.78462e-17
3357.5774 3.92032e-17
3359.6062 4.04927e-17
3361.6357 4.21367e-17
3363.6658 3.15607e-17
3365.6963 3.46889e-17
3367.7273 3.80002e-17
3369.7585 3.19774e-17
3371.7905 3.71765e-17
3373.8228 4.57735e-17
3375.8557 3.56877e-17
3377.8889 4.0122e-17
3379.9229 3.59284e-17
3381.957 3.81516e-17
3383.9917 3.1992e-17
3386.0269 4.29629e-17
3388.0625 3.77424e-17
3390.0986 4.18229e-17
3392.1353 4.07701e-17
3394.1724 3.66221e-17
3396.2097 3.51414e-17
3398.2478 3.45503e-17
3400.2864 3.48874e-17
3402.3252 3.89877e-17
3404.3645 3.65785e-17
3406.4043 2.82827e-17
3408.4446 3.57472e-17
3410.4854 3.6105e-17
3412.5266 3.07768e-17
3414.5684 3.06909e-17
3416.6104 3.46987e-17
3418.6531 3.17925e-17
3420.696 3.11243e-17
3422.7395 2.98927e-17
3424.7834 3.07691e-17
3426.8279 3.62148e-17
3428.8728 3.3368e-17
3430.9182 3.63528e-17
3432.9639 2.86759e-17
3435.01 3.31802e-17
3437.0569 3.32809e-17
3439.104 3.03665e-17
3441.1516 3.27786e-17
3443.1995 3.46515e-17
3445.248 3.22372e-17
3447.2969 3.37991e-17
3449.3462 2.78834e-17
3451.396 3.90175e-17
3453.4463 3.52187e-17
3455.4971 3.17214e-17
3457.5481 3.08202e-17
3459.5996 3.37193e-17
3461.6519 3.20417e-17
3463.7041 3.41928e-17
3465.7571 3.04153e-17
3467.8105 3.26404e-17
3469.8643 3.59121e-17
3471.9185 3.31667e-17
3473.9731 2.84436e-17
3476.0283 3.24279e-17
3478.0837 2.324e-17
3480.1399 3.3232e-17
3482.1963 3.43822e-17
3484.2529 3.78865e-17
3486.3103 3.44059e-17
3488.3679 3.72926e-17
3490.4263 2.78581e-17
3492.4846 2.79804e-17
3494.5437 3.40317e-17
3496.6033 3.34965e-17
3498.6631 3.26819e-17
3500.7234 3.63377e-17
3502.7842 2.9185e-17
3504.8452 3.75916e-17
3506.9067 3.49018e-17
3508.9688 3.19064e-17
3511.0312 3.13925e-17
3513.094 3.0503e-17
3515.1572 3.0872e-17
3517.2209 2.88206e-17
3519.2852 2.94055e-17
3521.3496 3.39523e-17
3523.4146 3.05096e-17
3525.48 3.24201e-17
3527.5459 3.33276e-17
3529.6121 3.2235e-17
3531.6787 3.34971e-17
3533.7456 3.1816e-17
3535.8132 3.16026e-17
3537.8811 3.02079e-17
3539.9495 2.87395e-17
3542.0181 2.67206e-17
3544.0872 3.30949e-17
3546.1567 2.83848e-17
3548.2268 3.20283e-17
3550.2971 2.89154e-17
3552.3679 3.70782e-17
3554.439 3.30788e-17
3556.5105 3.93039e-17
3558.5825 3.66051e-17
3560.655 3.58362e-17
3562.7278 3.43949e-17
3564.801 2.52192e-17
3566.8748 3.20325e-17
3568.9487 3.4738e-17
3571.0232 3.04322e-17
3573.0981 3.55553e-17
3575.1733 3.08425e-17
3577.2488 3.2226e-17
3579.325 3.02618e-17
3581.4016 3.15617e-17
3583.4783 3.26358e-17
3585.5557 3.01522e-17
3587.6333 2.81216e-17
3589.7112 3.02342e-17
3591.7898 3.59041e-17
3593.8684 3.16928e-17
3595.9478 3.05895e-17
3598.0273 3.35901e-17
3600.1074 3.17915e-17
3602.188 3.06012e-17
3604.2688 2.8432e-17
3606.3499 2.93449e-17
3608.4314 3.44018e-17
3610.5134 3.17584e-17
3612.5957 3.39163e-17
3614.6787 3.28273e-17
3616.7617 3.14051e-17
3618.8452 3.30451e-17
3620.9292 3.70139e-17
3623.0137 3.37307e-17
3625.0984 3.39609e-17
3627.1833 3.21676e-17
3629.2688 3.29054e-17
3631.3547 3.12872e-17
3633.4409 2.77185e-17
3635.5276 2.85203e-17
3637.6145 2.78222e-17
3639.7019 3.40397e-17
3641.7898 3.61888e-17
3643.8779 2.84593e-17
3645.9663 3.19245e-17
3648.0554 3.22615e-17
3650.1445 3.0858e-17
3652.2344 2.60336e-17
3654.3242 3.14145e-17
3656.4148 3.43786e-17
3658.5056 2.79164e-17
3660.5967 2.98694e-17
3662.6882 2.9406e-17
3664.78 2.90451e-17
3666.8723 3.16843e-17
3668.9651 2.96444e-17
3671.0581 2.98746e-17
3673.1516 2.61469e-17
3675.2451 3.2699e-17
3677.3394 2.90824e-17
3679.4338 2.92418e-17
3681.5288 3.19156e-17
3683.6238 2.5005e-17
3685.7195 2.783e-17
3687.8154 3.35123e-17
3689.9119 2.74608e-17
3692.0085 2.96096e-17
3694.1057 2.72261e-17
3696.2029 2.78529e-17
3698.3008 3.07986e-17
3700.3989 3.19846e-17
3702.4973 2.75598e-17
3704.5962 3.33807e-17
3706.6956 2.7737e-17
3708.7949 2.97489e-17
3710.895 3.15271e-17
3712.9954 3.0305e-17
3715.0959 2.8857e-17
3717.197 2.75736e-17
3719.2983 2.78593e-17
3721.3999 3.03291e-17
3723.502 2.63114e-17
3725.6045 2.8769e-17
3727.7073 2.65328e-17
3729.8103 3.13254e-17
3731.9138 3.21226e-17
3734.0176 2.78898e-17
3736.1218 2.56658e-17
3738.2263 3.17087e-17
3740.3313 2.71837e-17
3742.4363 3.18819e-17
3744.542 2.9691e-17
3746.6477 2.9342e-17
3748.7542 2.90695e-17
3750.8606 2.90765e-17
3752.9675 3.08289e-17
3755.075 2.72754e-17
3757.1826 3.16325e-17
3759.2905 2.92853e-17
3761.3987 3.06933e-17
3763.5073 3.04823e-17
3765.6165 3.02573e-17
3767.7256 3.02142e-17
3769.8354 2.7381e-17
3771.9453 2.89747e-17
3774.0557 2.50629e-17
3776.1665 2.56802e-17
3778.2773 2.76644e-17
3780.3887 2.57591e-17
3782.5005 2.90333e-17
3784.6123 2.69394e-17
3786.7246 2.41307e-17
3788.8374 2.90642e-17
3790.9504 2.86015e-17
3793.0637 2.77906e-17
3795.1775 2.92814e-17
3797.2915 2.58689e-17
3799.4058 2.93079e-17
3801.5205 2.88276e-17
3803.6355 3.22511e-17
3805.7507 2.81626e-17
3807.8662 3.15244e-17
3809.9824 3.05715e-17
3812.0984 2.42557e-17
3814.2151 2.92893e-17
3816.332 3.31654e-17
3818.4492 2.85554e-17
3820.5669 3.01084e-17
3822.6848 2.60873e-17
3824.803 2.94846e-17
3826.9214 2.87666e-17
3829.0403 2.99854e-17
3831.1594 3.02708e-17
3833.2791 3.79318e-17
3835.3987 6.25328e-17
3837.519 9.59603e-17
3839.6394 9.87898e-17
3841.76 7.70756e-17
3843.8811 3.70501e-17
3846.0027 2.69182e-17
3848.1243 2.68947e-17
3850.2463 3.39865e-17
3852.3687 3.25151e-17
3854.4912 3.79178e-17
3856.6143 3.30486e-17
3858.7373 2.92235e-17
3860.8611 2.86307e-17
3862.9849 2.54235e-17
3865.1089 3.14104e-17
3867.2334 3.55016e-17
3869.3584 3.5445e-17
3871.4834 3.74598e-17
3873.6089 3.62123e-17
3875.7346 3.77969e-17
3877.8606 3.3483e-17
3879.9868 2.74408e-17
3882.1133 2.97762e-17
3884.2402 2.85323e-17
3886.3674 2.94803e-17
3888.4951 3.60665e-17
3890.6228 4.02553e-17
3892.751 4.06073e-17
3894.8794 3.9476e-17
3897.0081 4.26732e-17
3899.1372 4.13922e-17
3901.2664 3.86933e-17
3903.396 3.64524e-17
3905.5259 3.49951e-17
3907.656 3.25047e-17
3909.7866 2.97666e-17
3911.9172 2.99709e-17
3914.0483 3.30494e-17
3916.1797 3.37032e-17
3918.3113 3.83155e-17
3920.4434 4.04181e-17
3922.5757 4.21462e-17
3924.708 4.46188e-17
3926.8408 4.14785e-17
3928.9741 4.15121e-17
3931.1074 3.78099e-17
3933.2412 3.53004e-17
3935.375 3.81049e-17
3937.5093 3.78114e-17
3939.6438 3.74185e-17
3941.7786 4.02386e-17
3943.9138 3.13575e-17
3946.0491 3.00806e-17
3948.1848 2.64487e-17
3950.3206 2.615e-17
3952.4568 2.93295e-17
3954.5933 3.58569e-17
3956.73 3.80436e-17
3958.8672 3.73737e-17
3961.0044 4.2671e-17
3963.1421 4.3488e-17
3965.28 4.09473e-17
3967.4182 4.34519e-17
3969.5566 4.32421e-17
3971.6953 4.23159e-17
3973.8342 3.96397e-17
3975.9736 4.34892e-17
3978.113 4.37428e-17
3980.2529 4.46638e-17
3982.3931 4.32538e-17
3984.5332 4.11282e-17
3986.6738 4.09939e-17
3988.8147 4.13622e-17
3990.9561 3.86557e-17
3993.0974 3.83472e-17
3995.239 3.69513e-17
3997.3811 3.62605e-17
3999.5232 3.50409e-17
4001.6658 3.04684e-17
4003.8086 2.85014e-17
4005.9514 2.73625e-17
4008.0947 3.12769e-17
4010.2383 3.58201e-17
4012.3821 3.5179e-17
4014.5261 3.855e-17
4016.6704 3.93166e-17
4018.8152 4.01877e-17
4020.96 4.21136e-17
4023.105 4.03912e-17
4025.2505 3.75113e-17
4027.396 4.29038e-17
4029.542 4.36165e-17
4031.688 4.07381e-17
4033.8345 3.98391e-17
4035.9812 3.96834e-17
4038.1279 4.26e-17
4040.2751 3.90934e-17
4042.4226 3.96147e-17
4044.5703 3.8818e-17
4046.7183 3.94168e-17
4048.8665 2.9015e-17
4051.0149 3.45696e-17
4053.1633 3.28671e-17
4055.3125 4.14571e-17
4057.4614 3.80438e-17
4059.6108 3.93138e-17
4061.7605 4.15247e-17
4063.9104 3.95852e-17
4066.0608 3.99111e-17
4068.2112 4.34714e-17
4070.3618 3.92149e-17
4072.5127 3.9473e-17
4074.6638 3.5439e-17
4076.8152 3.66588e-17
4078.9668 3.68106e-17
4081.1187 3.42716e-17
4083.2708 2.84082e-17
4085.4231 2.35074e-17
4087.5757 2.70202e-17
4089.7285 2.5448e-17
4091.8816 2.9193e-17
4094.0349 2.90222e-17
4096.1885 3.7494e-17
4098.3423 3.56918e-17
4100.4961 3.90701e-17
4102.6504 3.59481e-17
4104.8047 3.99407e-17
4106.9595 4.1594e-17
4109.1143 4.36804e-17
4111.2695 4.25871e-17
4113.4253 3.81974e-17
4115.5806 3.98675e-17
4117.7368 4.34107e-17
4119.8926 4.07808e-17
4122.0493 4.31793e-17
4124.2056 3.94321e-17
4126.3623 3.94427e-17
4128.5195 4.12401e-17
4130.6768 4.13474e-17
4132.834 4.263e-17
4134.9917 4.10393e-17
4137.1499 4.02057e-17
4139.3081 3.97888e-17
4141.4663 4.15478e-17
4143.625 3.65387e-17
4145.7837 3.90232e-17
4147.9429 4.00946e-17
4150.1021 4.0126e-17
4152.2617 3.89072e-17
4154.4214 4.38918e-17
4156.5815 4.4238e-17
4158.7412 4.11058e-17
4160.9019 4.08035e-17
4163.0625 4.28956e-17
4165.2231 4.07027e-17
4167.3843 4.23239e-17
4169.5454 4.17478e-17
4171.707 4.0169e-17
4173.8687 4.03884e-17
4176.0303 4.12019e-17
4178.1924 4.12213e-17
4180.355 4.40995e-17
4182.5176 3.86481e-17
4184.6802 4.10496e-17
4186.8433 3.87073e-17
4189.0063 3.8638e-17
4191.1694 4.17578e-17
4193.333 3.76438e-17
4195.4971 3.98841e-17
4197.6611 3.94596e-17
4199.8252 4.07928e-17
4201.9897 3.91626e-17
4204.1543 3.70909e-17
4206.3193 3.95647e-17
4208.4839 3.68748e-17
4210.6494 3.68807e-17
4212.8149 3.54196e-17
4214.9805 3.3127e-17
4217.1465 3.24732e-17
4219.3125 2.83614e-17
4221.4785 2.83397e-17
4223.645 2.60634e-17
4225.8115 3.12398e-17
4227.9785 3.05306e-17
4230.1455 3.11773e-17
4232.313 3.45547e-17
4234.4805 3.5947e-17
4236.6479 3.71092e-17
4238.8159 3.41744e-17
4240.9839 3.72714e-17
4243.1519 3.39403e-17
4245.3203 3.80903e-17
4247.4893 3.83538e-17
4249.6577 3.75856e-17
4251.8267 4.07098e-17
4253.9961 3.91331e-17
4256.1655 3.68776e-17
4258.335 3.97257e-17
4260.5049 3.86015e-17
4262.6748 3.96889e-17
4264.8452 3.74657e-17
4267.0156 3.74384e-17
4269.186 3.74458e-17
4271.3564 3.92401e-17
4273.5273 3.82908e-17
4275.6987 3.77403e-17
4277.8701 3.91925e-17
4280.0415 3.89131e-17
4282.2129 4.04819e-17
4284.3848 3.99442e-17
4286.5571 3.96818e-17
4288.729 3.94671e-17
4290.9014 3.75649e-17
4293.0742 3.87025e-17
4295.2471 3.78882e-17
4297.4199 3.84311e-17
4299.5928 3.55553e-17
4301.7661 3.75639e-17
4303.9399 3.90079e-17
4306.1133 3.75901e-17
4308.2871 4.03669e-17
4310.4614 3.78766e-17
4312.6353 3.81966e-17
4314.8096 3.83781e-17
4316.9844 3.64959e-17
4319.1592 3.85053e-17
4321.334 3.71927e-17
4323.5088 3.77067e-17
4325.6841 3.57846e-17
4327.8594 3.69333e-17
4330.0352 3.87223e-17
4332.2109 3.98092e-17
4334.3867 3.8545e-17
4336.563 3.70571e-17
4338.7393 3.90474e-17
4340.9155 3.86723e-17
4343.0923 3.5776e-17
4345.269 3.80001e-17
4347.4458 3.7663e-17
4349.623 3.82502e-17
4351.8003 3.50889e-17
4353.9775 3.66049e-17
4356.1553 3.72436e-17
4358.333 3.97332e-17
4360.5112 3.41642e-17
4362.689 3.76545e-17
4364.8672 3.6827e-17
4367.0459 3.74255e-17
4369.2246 3.9862e-17
4371.4033 3.82067e-17
4373.582 3.73264e-17
4375.7612 3.93125e-17
4377.9404 3.69593e-17
4380.1196 3.92213e-17
4382.2993 3.6352e-17
4384.479 3.60733e-17
4386.6587 3.66463e-17
4388.8389 3.73072e-17
4391.019 3.84245e-17
4393.1992 3.62241e-17
4395.3799 3.77576e-17
4397.5605 3.8212e-17
4399.7412 3.45591e-17
4401.9224 3.76378e-17
4404.1035 3.70861e-17
4406.2847 3.62837e-17
4408.4658 3.46222e-17
4410.6475 3.62254e-17
4412.8291 3.37791e-17
4415.0112 3.5619e-17
4417.1929 3.65199e-17
4419.375 3.79231e-17
4421.5576 3.60019e-17
4423.7397 3.40269e-17
4425.9224 3.39974e-17
4428.1055 3.2046e-17
4430.2881 3.48973e-17
4432.4712 3.35487e-17
4434.6543 3.25931e-17
4436.8379 3.5491e-17
4439.021 3.39317e-17
4441.2046 3.39188e-17
4443.3887 3.51459e-17
4445.5723 3.24761e-17
4447.7563 3.18054e-17
4449.9404 3.19545e-17
4452.125 3.33815e-17
4454.3096 3.2508e-17
4456.4941 3.09732e-17
4458.6787 3.34292e-17
4460.8638 3.13795e-17
4463.0488 2.73048e-17
4465.2339 2.96384e-17
4467.4189 3.01747e-17
4469.6045 3.12639e-17
4471.79 3.10824e-17
4473.9756 2.92551e-17
4476.1616 2.77372e-17
4478.3477 3.05608e-17
4480.5337 3.0745e-17
4482.7197 3.29224e-17
4484.9062 3.34709e-17
4487.0928 3.44547e-17
4489.2793 3.2774e-17
4491.4663 3.7373e-17
4493.6528 3.56336e-17
4495.8398 3.34596e-17
4498.0273 3.55293e-17
4500.2144 3.47904e-17
4502.4019 3.48179e-17
4504.5894 3.22538e-17
4506.7773 3.52086e-17
4508.9648 3.56521e-17
4511.1528 3.59983e-17
4513.3408 3.13613e-17
4515.5288 3.20021e-17
4517.7173 3.16453e-17
4519.9058 3.25862e-17
4522.0942 3.55444e-17
4524.2827 3.44364e-17
4526.4717 3.4643e-17
4528.6606 3.35297e-17
4530.8496 3.03511e-17
4533.0386 3.27218e-17
4535.228 3.40852e-17
4537.4175 3.33026e-17
4539.6069 3.33911e-17
4541.7964 3.65004e-17
4543.9863 3.47579e-17
4546.1763 3.66158e-17
4548.3662 3.33896e-17
4550.5562 3.52884e-17
4552.7466 3.40029e-17
4554.9365 3.44308e-17
4557.1274 3.64467e-17
4559.3179 3.77521e-17
4561.5083 3.49824e-17
4563.6992 3.40995e-17
4565.8901 3.33762e-17
4568.0811 3.71589e-17
4570.272 3.59561e-17
4572.4634 3.36357e-17
4574.6548 3.42435e-17
4576.8462 3.24576e-17
4579.0376 3.31417e-17
4581.2295 3.55147e-17
4583.4214 3.28693e-17
4585.6133 3.38954e-17
4587.8052 3.55554e-17
4589.9971 3.55183e-17
4592.1895 3.28401e-17
4594.3818 3.23321e-17
4596.5742 3.50115e-17
4598.7666 3.2084e-17
4600.9595 3.36945e-17
4603.1523 3.11294e-17
4605.3452 3.36337e-17
4607.5381 3.4194e-17
4609.731 3.48899e-17
4611.9243 3.2381e-17
4614.1172 3.29207e-17
4616.3105 3.15094e-17
4618.5044 3.42386e-17
4620.6978 3.0998e-17
4622.8916 3.4149e-17
4625.085 3.23878e-17
4627.2788 3.21009e-17
4629.4727 3.16022e-17
4631.667 3.38803e-17
4633.8613 3.68444e-17
4636.0552 3.55752e-17
4638.2495 3.35005e-17
4640.4443 3.37426e-17
4642.6387 3.38072e-17
4644.8335 3.2425e-17
4647.0278 3.44042e-17
4649.2227 3.50865e-17
4651.418 3.26616e-17
4653.6128 3.52747e-17
4655.8081 3.47808e-17
4658.0029 3.32485e-17
4660.1982 3.18803e-17
4662.3936 3.12318e-17
4664.5889 3.161e-17
4666.7847 3.23248e-17
4668.9805 3.16458e-17
4671.1763 3.44955e-17
4673.3721 3.55457e-17
4675.5679 3.5098e-17
4677.7637 3.43056e-17
4679.96 3.11768e-17
4682.1558 3.1191e-17
4684.3521 3.3001e-17
4686.5488 3.02122e-17
4688.7451 3.26921e-17
4690.9414 3.01945e-17
4693.1382 3.24502e-17
4695.335 3.311e-17
4697.5317 3.11165e-17
4699.7285 3.13231e-17
4701.9253 2.8566e-17
4704.1221 3.17015e-17
4706.3193 3.3044e-17
4708.5166 3.18768e-17
4710.7139 3.22102e-17
4712.9111 3.1476e-17
4715.1084 3.22968e-17
4717.3062 3.02328e-17
4719.5034 3.15057e-17
4721.7012 2.9384e-17
4723.8989 3.29189e-17
4726.0967 3.17031e-17
4728.2944 3.3584e-17
4730.4927 3.32542e-17
4732.6904 3.03515e-17
4734.8887 3.35099e-17
4737.0869 3.29995e-17
4739.2852 3.35413e-17
4741.4834 3.34426e-17
4743.6816 3.15952e-17
4745.8804 3.15681e-17
4748.0786 3.31682e-17
4750.2773 3.19639e-17
4752.4761 3.3041e-17
4754.6748 3.22618e-17
4756.8735 3.16536e-17
4759.0723 3.09407e-17
4761.2715 3.13891e-17
4763.4707 3.06715e-17
4765.6694 3.16404e-17
4767.8687 3.30029e-17
4770.0679 3.38798e-17
4772.2671 3.31077e-17
4774.4668 3.10485e-17
4776.666 2.96629e-17
4778.8657 3.2359e-17
4781.0654 3.0375e-17
4783.2646 3.25573e-17
4785.4644 2.79566e-17
4787.6641 3.09913e-17
4789.8643 3.05573e-17
4792.064 3.25696e-17
4794.2637 3.46282e-17
4796.4639 3.04417e-17
4798.6641 3.2393e-17
4800.8643 3.28435e-17
4803.0645 3.12776e-17
4805.2646 3.03134e-17
4807.4648 2.88558e-17
4809.6655 3.26252e-17
4811.8657 3.21237e-17
4814.0664 3.09528e-17
4816.2666 2.95669e-17
4818.4673 3.20862e-17
4820.668 3.32384e-17
4822.8687 3.31847e-17
4825.0693 3.18686e-17
4827.2705 3.13713e-17
4829.4712 3.07206e-17
4831.6724 3.17001e-17
4833.873 2.98035e-17
4836.0742 3.16386e-17
4838.2754 3.18239e-17
4840.4766 2.90312e-17
4842.6777 2.89852e-17
4844.8789 2.91205e-17
4847.0801 3.10297e-17
4849.2817 3.11003e-17
4851.4829 3.18699e-17
4853.6846 3.01722e-17
4855.8862 3.22117e-17
4858.0879 2.96512e-17
4860.2891 3.19495e-17
4862.4912 3.28484e-17
4864.6929 2.97808e-17
4866.8945 3.02868e-17
4869.0962 3.18232e-17
4871.2983 3.32345e-17
4873.5 3.23101e-17
4875.7021 3.09398e-17
4877.9043 3.1691e-17
4880.106 2.85283e-17
4882.3081 3.18002e-17
4884.5103 3.07879e-17
4886.7124 3.25142e-17
4888.915 3.25196e-17
4891.1172 2.98672e-17
4893.3193 3.09879e-17
4895.5215 3.18746e-17
4897.7241 3.08928e-17
4899.9268 3.11688e-17
4902.1289 3.29937e-17
4904.3315 3.24262e-17
4906.5342 3.16564e-17
4908.7368 2.99377e-17
4910.9395 3.11513e-17
4913.1421 3.08477e-17
4915.3447 3.1161e-17
4917.5474 3.08766e-17
4919.7505 3.11552e-17
4921.9531 2.99823e-17
4924.1562 3.10683e-17
4926.3589 2.93883e-17
4928.562 3.01189e-17
4930.7651 3.27732e-17
4932.9678 3.1077e-17
4935.1709 3.15506e-17
4937.374 2.97116e-17
4939.5771 3.00001e-17
4941.7803 2.93194e-17
4943.9834 2.84409e-17
4946.187 3.22218e-17
4948.3901 2.84724e-17
4950.5933 2.85445e-17
4952.7969 3.0754e-17
4955 2.87062e-17
4957.2036 3.01079e-17
4959.4067 3.02363e-17
4961.6104 3.00491e-17
4963.814 3.10195e-17
4966.0176 3.03443e-17
4968.2207 2.86799e-17
4970.4243 2.87171e-17
4972.6279 2.99068e-17
4974.8315 2.74219e-17
4977.0352 2.77043e-17
4979.2393 2.67582e-17
4981.4429 2.90744e-17
4983.6465 3.10816e-17
4985.8501 2.86488e-17
4988.0542 3.04255e-17
4990.2578 2.79411e-17
4992.4619 2.79504e-17
4994.6655 3.05164e-17
4996.8696 2.73032e-17
4999.0732 2.56504e-17
5001.2773 2.70373e-17
5003.4814 3.66216e-17
5005.6851 3.96292e-17
5007.8892 3.77284e-17
5010.0933 2.53975e-17
5012.2974 2.36667e-17
5014.5015 2.5802e-17
5016.7056 2.8049e-17
5018.9097 2.89382e-17
5021.1138 3.13883e-17
5023.3179 2.66446e-17
5025.522 2.6861e-17
5027.7261 2.85817e-17
5029.9307 2.81052e-17
5032.1348 2.89294e-17
5034.3389 2.54898e-17
5036.543 2.78597e-17
5038.7476 2.96208e-17
5040.9517 3.1435e-17
5043.1562 2.91419e-17
5045.3604 3.11993e-17
5047.5649 2.7312e-17
5049.769 3.01947e-17
5051.9736 2.91556e-17
5054.1782 3.02006e-17
5056.3823 2.70268e-17
5058.5869 2.92866e-17
5060.791 2.69661e-17
5062.9956 2.88664e-17
5065.2002 2.86094e-17
5067.4048 2.7607e-17
5069.6089 2.69885e-17
5071.8135 2.95338e-17
5074.0181 2.92465e-17
5076.2227 2.9023e-17
5078.4272 2.94681e-17
5080.6318 2.66999e-17
5082.8364 2.97701e-17
5085.041 2.63001e-17
5087.2456 2.89758e-17
5089.4502 3.08436e-17
5091.6548 2.94233e-17
5093.8594 2.76549e-17
5096.064 3.13974e-17
5098.2686 2.87826e-17
5100.4731 2.98692e-17
5102.6777 3.03077e-17
5104.8823 3.40195e-17
5107.0869 3.64627e-17
5109.2915 3.24293e-17
5111.4961 2.78689e-17
5113.7007 2.97791e-17
5115.9053 2.77519e-17
5118.1104 2.73578e-17
5120.3149 2.84505e-17
5122.5195 3.04172e-17
5124.7241 2.87147e-17
5126.9287 2.70616e-17
5129.1338 2.62604e-17
5131.3384 2.56753e-17
5133.543 2.82015e-17
5135.7476 2.58758e-17
5137.9526 2.82909e-17
5140.1572 2.93507e-17
5142.3618 2.77313e-17
5144.5664 2.73733e-17
5146.771 2.67191e-17
5148.9761 2.89003e-17
5151.1807 3.25447e-17
5153.3853 4.62231e-17
5155.5898 5.1133e-17
5157.7944 4.78726e-17
5159.9995 3.21357e-17
5162.2041 2.53885e-17
5164.4087 2.61707e-17
5166.6133 2.85103e-17
5168.8179 2.6941e-17
5171.0229 2.7215e-17
5173.2275 2.88064e-17
5175.4321 2.84906e-17
5177.6367 2.76962e-17
5179.8413 2.78776e-17
5182.0459 2.82734e-17
5184.251 3.06804e-17
5186.4556 2.78518e-17
5188.6602 2.71167e-17
5190.8647 2.7274e-17
5193.0693 3.05035e-17
5195.2739 2.86082e-17
5197.4785 2.71515e-17
5199.6831 3.02123e-17
5201.8877 2.90136e-17
5204.0923 2.91265e-17
5206.2969 2.92507e-17
5208.5015 2.84318e-17
5210.7061 2.74318e-17
5212.9106 3.03314e-17
5215.1152 2.64256e-17
5217.3198 2.88143e-17
5219.5244 2.71734e-17
5221.729 2.69075e-17
5223.9331 2.78409e-17
5226.1377 2.96299e-17
5228.3423 2.6758e-17
5230.5469 2.7801e-17
5232.751 3.04724e-17
5234.9556 2.98092e-17
5237.1602 2.95958e-17
5239.3643 2.82704e-17
5241.5688 3.08264e-17
5243.7734 2.69961e-17
5245.9775 2.91549e-17
5248.1821 2.91092e-17
5250.3862 2.76782e-17
5252.5908 2.65109e-17
5254.7949 2.66164e-17
5256.9995 2.79557e-17
5259.2036 2.72022e-17
5261.4082 2.95498e-17
5263.6123 2.84585e-17
5265.8164 2.48811e-17
5268.0205 2.74602e-17
5270.2251 2.66333e-17
5272.4292 2.89307e-17
5274.6333 2.48146e-17
5276.8374 2.72749e-17
5279.0415 2.55828e-17
5281.2456 2.73846e-17
5283.4497 2.72019e-17
5285.6538 2.50882e-17
5287.8579 2.68832e-17
5290.062 2.58831e-17
5292.2661 2.61134e-17
5294.4702 2.39984e-17
5296.6743 2.74941e-17
5298.8779 2.53741e-17
5301.082 2.53402e-17
5303.2861 2.69175e-17
5305.4897 2.69305e-17
5307.6938 2.67234e-17
5309.8975 2.77932e-17
5312.1016 2.7707e-17
5314.3052 2.71498e-17
5316.5093 2.60526e-17
5318.7129 2.3806e-17
5320.9165 2.44117e-17
5323.1206 2.64038e-17
5325.3242 2.29705e-17
5327.5278 2.64369e-17
5329.7314 2.52123e-17
5331.9351 2.65741e-17
5334.1387 2.3843e-17
5336.3423 2.56481e-17
5338.5459 2.4949e-17
5340.7495 2.50173e-17
5342.9531 2.81737e-17
5345.1562 2.44948e-17
5347.3599 2.48261e-17
5349.5635 2.36677e-17
5351.7666 2.61264e-17
5353.9702 2.60433e-17
5356.1733 2.37859e-17
5358.377 2.58787e-17
5360.5801 2.39037e-17
5362.7832 2.43482e-17
5364.9868 2.46994e-17
5367.1899 2.66643e-17
5369.3931 2.69257e-17
5371.5962 2.68474e-17
5373.7993 2.48444e-17
5376.0024 2.648e-17
5378.2056 2.51604e-17
5380.4087 2.65488e-17
5382.6118 2.39485e-17
5384.8145 2.48047e-17
5387.0176 2.30486e-17
5389.2202 2.40565e-17
5391.4233 2.40978e-17
5393.626 2.66486e-17
5395.8291 2.49757e-17
5398.0317 2.4493e-17
5400.2344 2.40231e-17
5402.4375 2.48349e-17
5404.6401 2.3553e-17
5406.8428 2.73258e-17
5409.0454 2.46534e-17
5411.248 2.67735e-17
5413.4507 2.65165e-17
5415.6528 2.73709e-17
5417.8555 2.40033e-17
5420.0581 2.26536e-17
5422.2607 2.23313e-17
5424.4629 2.38736e-17
5426.665 2.67048e-17
5428.8677 2.50848e-17
5431.0698 2.13051e-17
5433.272 2.58901e-17
5435.4746 2.58341e-17
5437.6768 2.52e-17
5439.8789 2.74721e-17
5442.0806 2.73186e-17
5444.2827 2.64687e-17
5446.4849 2.72606e-17
5448.687 2.71499e-17
5450.8892 2.41954e-17
5453.0908 2.45592e-17
5455.293 2.44385e-17
5457.4946 2.53249e-17
5459.6963 2.32e-17
5461.8984 2.56962e-17
5464.1001 2.5393e-17
5466.3018 2.39871e-17
5468.5034 2.75588e-17
5470.7051 2.32878e-17
5472.9067 2.6492e-17
5475.1084 2.55746e-17
5477.3096 2.58059e-17
5479.5112 2.59319e-17
5481.7129 2.43743e-17
5483.9141 2.38477e-17
5486.1157 2.55187e-17
5488.3169 2.44724e-17
5490.5181 2.36568e-17
5492.7192 2.69523e-17
5494.9204 2.27984e-17
5497.1216 2.5659e-17
5499.3228 2.45472e-17
5501.5239 2.31146e-17
5503.7251 2.43534e-17
5505.9258 2.66609e-17
5508.127 2.40998e-17
5510.3276 2.48488e-17
5512.5288 2.50726e-17
5514.7295 2.53373e-17
5516.9302 2.71679e-17
5519.1309 2.52865e-17
5521.332 2.54167e-17
5523.5322 3.00064e-17
5525.7329 2.35751e-17
5527.9336 2.39563e-17
5530.1343 2.28439e-17
5532.3345 2.69658e-17
5534.5352 2.53758e-17
5536.7354 2.62297e-17
5538.936 2.54157e-17
5541.1362 2.62729e-17
5543.3364 2.38429e-17
5545.5366 2.28656e-17
5547.7368 2.44698e-17
5549.937 2.82844e-17
5552.1372 2.5592e-17
5554.3369 2.49801e-17
5556.5371 2.37927e-17
5558.7368 2.27549e-17
5560.937 2.7333e-17
5563.1367 2.47074e-17
5565.3364 2.28903e-17
5567.5366 2.31942e-17
5569.7363 2.72479e-17
5571.936 2.43756e-17
5574.1353 1.78977e-17
5576.335 9.08113e-18
5578.5347 2.48571e-17
5580.7339 2.49613e-17
5582.9336 2.34831e-17
5585.1328 2.42264e-17
5587.332 2.34101e-17
5589.5317 2.42304e-17
5591.7305 2.14707e-17
5593.9297 2.69794e-17
5596.1289 2.39554e-17
5598.3281 2.43822e-17
5600.5273 2.53737e-17
5602.7261 2.3364e-17
5604.9253 2.24901e-17
5607.124 2.46819e-17
5609.3232 2.57707e-17
5611.522 2.0677e-17
5613.7207 2.50055e-17
5615.9194 2.48656e-17
5618.1182 2.55636e-17
5620.3164 2.66651e-17
5622.5151 2.47815e-17
5624.7139 2.24903e-17
5626.9121 2.35025e-17
5629.1104 2.23262e-17
5631.3091 2.7145e-17
5633.5073 2.12977e-17
5635.7056 2.20667e-17
5637.9038 2.319e-17
5640.1021 2.66724e-17
5642.2998 2.38333e-17
5644.498 2.24591e-17
5646.6963 2.36346e-17
5648.894 2.61171e-17
5651.0918 2.24897e-17
5653.29 2.52914e-17
5655.4878 2.25305e-17
5657.6855 2.3067e-17
5657.7207 2.13154e-17
5658.8628 2.43373e-17
5660.0049 2.21194e-17
5661.1475 2.14578e-17
5662.2896 2.07429e-17
5663.4321 2.52717e-17
5664.5742 1.77929e-17
5665.7168 2.19259e-17
5666.8594 2.03674e-17
5668.0015 2.57333e-17
5669.1445 1.68548e-17
5670.2871 2.0543e-17
5671.4297 2.33159e-17
5672.5723 2.45322e-17
5673.7148 2.78879e-17
5674.8579 2.25986e-17
5676.0005 1.99743e-17
5677.1436 2.52454e-17
5678.2866 2.09657e-17
5679.4297 2.36078e-17
5680.5728 2.32114e-17
5681.7158 2.039e-17
5682.8589 2.77198e-17
5684.002 2.22379e-17
5685.145 2.70154e-17
5686.2886 2.25709e-17
5687.4316 2.58788e-17
5688.5752 2.43078e-17
5689.7183 2.30161e-17
5690.8618 2.51369e-17
5692.0054 2.16038e-17
5693.1489 2.6053e-17
5694.2925 2.06611e-17
5695.436 2.39727e-17
5696.5801 2.26725e-17
5697.7236 2.45011e-17
5698.8672 2.42983e-17
5700.0112 2.52051e-17
5701.1548 2.5978e-17
5702.2988 2.04632e-17
5703.4429 2.37334e-17
5704.5869 2.30451e-17
5705.731 2.57934e-17
5706.875 2.11899e-17
5708.019 1.96466e-17
5709.1636 2.40268e-17
5710.3076 1.99833e-17
5711.4517 2.24761e-17
5712.5962 2.45952e-17
5713.7407 2.46048e-17
5714.8848 2.76465e-17
5716.0293 2.19697e-17
5717.1738 2.23612e-17
5718.3184 2.24889e-17
5719.4629 2.06908e-17
5720.6079 1.96868e-17
5721.7524 2.10833e-17
5722.897 2.58138e-17
5724.042 2.51299e-17
5725.1865 2.54077e-17
5726.3315 2.43201e-17
5727.4766 2.14756e-17
5728.6216 2.49294e-17
5729.7666 2.17664e-17
5730.9116 2.23136e-17
5732.0566 1.98837e-17
5733.2017 2.03076e-17
5734.3467 2.20307e-17
5735.4922 2.27291e-17
5736.6372 2.41835e-17
5737.7827 2.18467e-17
5738.9282 2.18742e-17
5740.0732 1.96378e-17
5741.2188 2.06615e-17
5742.3643 1.72814e-17
5743.5098 2.39638e-17
5744.6553 2.40218e-17
5745.8013 2.42336e-17
5746.9468 2.48307e-17
5748.0923 2.43283e-17
5749.2383 2.3999e-17
5750.3843 2.42847e-17
5751.5298 2.19601e-17
5752.6758 2.39359e-17
5753.8218 1.9991e-17
5754.9678 2.56083e-17
5756.1138 2.16782e-17
5757.2598 2.40616e-17
5758.4058 2.10616e-17
5759.5522 2.36983e-17
5760.6982 2.57346e-17
5761.8447 2.30725e-17
5762.9912 2.25371e-17
5764.1372 2.35823e-17
5765.2837 2.22511e-17
5766.4302 2.33516e-17
5767.5767 1.87525e-17
5768.7231 2.20969e-17
5769.8696 2.5074e-17
5771.0161 2.34843e-17
5772.1631 2.21295e-17
5773.3096 2.56263e-17
5774.4565 2.62914e-17
5775.603 2.22629e-17
5776.75 2.27784e-17
5777.897 2.12748e-17
5779.0439 2.61835e-17
5780.1909 2.35521e-17
5781.3379 2.24863e-17
5782.4849 2.30937e-17
5783.6318 2.22526e-17
5784.7793 2.22928e-17
5785.9263 2.18673e-17
5787.0737 2.58044e-17
5788.2207 2.42312e-17
5789.3682 2.02682e-17
5790.5156 2.18714e-17
5791.6631 2.34819e-17
5792.8105 2.03828e-17
5793.958 2.23998e-17
5795.1055 2.2069e-17
5796.2529 2.35687e-17
5797.4009 2.28296e-17
5798.5483 2.20534e-17
5799.6963 2.44804e-17
5800.8438 2.24141e-17
5801.9917 2.31364e-17
5803.1396 2.18576e-17
5804.2876 2.29765e-17
5805.4351 2.24989e-17
5806.5835 2.26722e-17
5807.7314 2.18116e-17
5808.8794 2.54265e-17
5810.0273 2.04746e-17
5811.1758 2.29677e-17
5812.3237 2.40528e-17
5813.4722 2.4274e-17
5814.6206 1.9042e-17
5815.769 2.49072e-17
5816.917 2.47432e-17
5818.0654 2.53386e-17
5819.2139 2.12625e-17
5820.3623 2.36641e-17
5821.5112 2.24465e-17
5822.6597 2.01283e-17
5823.8081 2.1594e-17
5824.957 2.31359e-17
5826.1055 2.26253e-17
5827.2544 2.10093e-17
5828.4033 2.16663e-17
5829.5522 2.40245e-17
5830.7012 2.80246e-17
5831.8501 2.09521e-17
5832.999 2.16593e-17
5834.1479 2.34194e-17
5835.2969 2.29612e-17
5836.4463 1.98079e-17
5837.5952 1.99679e-17
5838.7446 2.28558e-17
5839.894 2.12663e-17
5841.043 2.37175e-17
5842.1924 2.32083e-17
5843.3418 2.37878e-17
5844.4912 2.90754e-17
5845.6406 2.44095e-17
5846.79 2.36939e-17
5847.9399 2.13359e-17
5849.0894 2.20023e-17
5850.2388 2.47562e-17
5851.3887 2.28542e-17
5852.5381 2.31759e-17
5853.688 2.25909e-17
5854.8379 2.0373e-17
5855.9878 2.0353e-17
5857.1377 2.28998e-17
5858.2876 2.16303e-17
5859.4375 2.28132e-17
5860.5874 2.007e-17
5861.7378 2.29077e-17
5862.8877 2.30206e-17
5864.0376 2.3389e-17
5865.188 2.46363e-17
5866.3384 2.61035e-17
5867.4883 1.68829e-17
5868.6387 2.22217e-17
5869.7891 2.57874e-17
5870.9395 2.30629e-17
5872.0903 2.20426e-17
5873.2407 2.30509e-17
5874.3911 2.21806e-17
5875.5415 2.13259e-17
5876.6924 2.34192e-17
5877.8428 1.88973e-17
5878.9937 2.5432e-17
5880.1445 2.06222e-17
5881.2949 2.03673e-17
5882.4458 2.22899e-17
5883.5967 2.21251e-17
5884.7476 2.43258e-17
5885.8989 2.22513e-17
5887.0498 2.36593e-17
5888.2007 3.01498e-17
5889.3516 2.30251e-17
5890.5029 1.89502e-17
5891.6543 1.92287e-17
5892.8052 1.6668e-17
5893.9565 2.40697e-17
5895.1079 2.36783e-17
5896.2593 2.02564e-17
5897.4106 2.52205e-17
5898.562 2.2327e-17
5899.7134 1.77241e-17
5900.8652 2.0664e-17
5902.0166 2.20531e-17
5903.168 1.99732e-17
5904.3198 2.43464e-17
5905.4712 2.2318e-17
5906.623 2.17604e-17
5907.7749 2.20585e-17
5908.9268 2.30709e-17
5910.0786 2.36853e-17
5911.2305 2.39902e-17
5912.3823 2.2896e-17
5913.5342 2.35224e-17
5914.6865 2.29423e-17
5915.8384 2.32925e-17
5916.9907 2.10027e-17
5918.1426 2.43169e-17
5919.2949 2.54301e-17
5920.4468 2.28044e-17
5921.5991 2.02078e-17
5922.7515 2.60334e-17
5923.9038 2.31883e-17
5925.0562 2.27722e-17
5926.2085 2.10803e-17
5927.3613 2.25816e-17
5928.5137 2.03264e-17
5929.6665 2.27309e-17
5930.8188 2.10437e-17
5931.9717 2.48847e-17
5933.124 2.44078e-17
5934.2769 2.54401e-17
5935.4297 2.2927e-17
5936.5825 2.53754e-17
5937.7354 2.20472e-17
5938.8882 2.19215e-17
5940.041 2.36608e-17
5941.1943 1.97684e-17
5942.3472 2.00006e-17
5943.5 2.27033e-17
5944.6533 2.23165e-17
5945.8066 2.12278e-17
5946.9595 2.42922e-17
5948.1128 2.27855e-17
5949.2661 2.53516e-17
5950.4194 2.11747e-17
5951.5728 2.31945e-17
5952.7261 2.34055e-17
5953.8794 2.36319e-17
5955.0332 2.17667e-17
5956.1865 2.51123e-17
5957.3398 2.54378e-17
5958.4937 2.26942e-17
5959.647 2.54042e-17
5960.8008 2.58082e-17
5961.9546 1.93274e-17
5963.1084 2.51059e-17
5964.2622 1.96782e-17
5965.416 2.28364e-17
5966.5698 2.29402e-17
5967.7236 2.05007e-17
5968.8779 2.16297e-17
5970.0317 2.11936e-17
5971.186 1.99134e-17
5972.3398 1.64262e-17
5973.4941 2.05044e-17
5974.6484 2.23465e-17
5975.8022 2.47757e-17
5976.9565 2.19258e-17
5978.1108 2.54846e-17
5979.2651 2.01303e-17
5980.4194 2.26588e-17
5981.5742 2.18307e-17
5982.7285 2.36436e-17
5983.8828 2.40919e-17
5985.0376 2.04511e-17
5986.1919 2.19742e-17
5987.3467 2.3096e-17
5988.5015 2.40698e-17
5989.6558 2.12516e-17
5990.8105 2.32952e-17
5991.9653 2.12153e-17
5993.1201 2.27064e-17
5994.2754 2.37177e-17
5995.4302 2.04572e-17
5996.585 2.63659e-17
5997.7402 2.19663e-17
5998.895 2.14141e-17
6000.0503 2.11285e-17
6001.2051 2.29856e-17
6002.3604 1.99569e-17
6003.5156 2.5073e-17
6004.6709 2.08082e-17
6005.8262 2.32483e-17
6006.9814 2.39748e-17
6008.1367 2.24924e-17
6009.292 2.0818e-17
6010.4473 1.97261e-17
6011.603 2.15351e-17
6012.7583 2.10992e-17
6013.9141 2.21047e-17
6015.0693 2.84606e-17
6016.2251 1.83644e-17
6017.3809 2.19136e-17
6018.5366 2.14903e-17
6019.6924 2.22657e-17
6020.8481 2.10573e-17
6022.0039 2.28114e-17
6023.1597 2.21149e-17
6024.3159 2.15398e-17
6025.4717 2.1186e-17
6026.6274 2.41384e-17
6027.7837 1.76704e-17
6028.9399 2.2963e-17
6030.0957 2.18814e-17
6031.252 2.27354e-17
6032.4082 1.96012e-17
6033.5645 2.18172e-17
6034.7207 2.48319e-17
6035.877 1.94713e-17
6037.0332 2.00613e-17
6038.1899 2.2869e-17
6039.3462 2.19745e-17
6040.5024 1.93161e-17
6041.6592 1.96962e-17
6042.8154 2.4746e-17
6043.9722 2.04504e-17
6045.1289 1.9502e-17
6046.2856 2.26153e-17
6047.4424 2.24883e-17
6048.5991 2.55581e-17
6049.7559 2.31301e-17
6050.9126 2.28668e-17
6052.0693 2.40596e-17
6053.2261 2.4777e-17
6054.3833 2.36208e-17
6055.5405 2.26497e-17
6056.6973 2.08708e-17
6057.8545 2.11775e-17
6059.0112 2.2991e-17
6060.1685 2.08173e-17
6061.3257 2.18857e-17
6062.4829 2.368e-17
6063.6401 2.13967e-17
6064.7974 2.06867e-17
6065.9551 2.05116e-17
6067.1123 2.18086e-17
6068.2695 2.08927e-17
6069.4272 1.95563e-17
6070.5845 2.28795e-17
6071.7422 2.08905e-17
6072.8999 2.29582e-17
6074.0576 2.39051e-17
6075.2148 2.00917e-17
6076.3726 1.95763e-17
6077.5303 2.17286e-17
6078.688 2.0435e-17
6079.8462 2.31641e-17
6081.0039 2.06871e-17
6082.1616 2.04634e-17
6083.3198 2.18079e-17
6084.4775 2.20596e-17
6085.6357 2.17988e-17
6086.7935 2.23848e-17
6087.9517 2.29711e-17
6089.1099 2.19358e-17
6090.2681 2.1711e-17
6091.4263 2.48345e-17
6092.5845 2.29964e-17
6093.7427 2.22314e-17
6094.9014 2.67956e-17
6096.0596 2.23608e-17
6097.2178 2.22714e-17
6098.3765 2.33693e-17
6099.5347 2.00942e-17
6100.6934 2.0683e-17
6101.8521 2.18434e-17
6103.0107 2.30274e-17
6104.1689 2.07945e-17
6105.3276 1.98873e-17
6106.4863 2.37785e-17
6107.6455 2.05748e-17
6108.8042 2.07245e-17
6109.9629 2.04538e-17
6111.1216 2.38898e-17
6112.2808 2.20955e-17
6113.4395 2.17323e-17
6114.5986 2.15467e-17
6115.7578 2.12609e-17
6116.9165 2.08548e-17
6118.0757 2.11286e-17
6119.2349 2.01525e-17
6120.394 2.31001e-17
6121.5532 2.24858e-17
6122.7124 1.99983e-17
6123.8716 2.35247e-17
6125.0312 2.68801e-17
6126.1904 2.00555e-17
6127.3501 2.10237e-17
6128.5093 2.16464e-17
6129.6689 2.21558e-17
6130.8286 2.37593e-17
6131.9878 2.12755e-17
6133.1475 2.18504e-17
6134.3071 1.92624e-17
6135.4668 2.33807e-17
6136.6265 2.2388e-17
6137.7861 2.56088e-17
6138.9463 2.20522e-17
6140.106 2.43163e-17
6141.2656 2.57436e-17
6142.4258 2.3741e-17
6143.5859 2.13019e-17
6144.7456 2.12177e-17
6145.9058 1.96147e-17
6147.0659 2.17403e-17
6148.2261 2.27139e-17
6149.3862 2.22555e-17
6150.5464 2.06824e-17
6151.7065 2.32242e-17
6152.8667 1.96584e-17
6154.0269 2.23511e-17
6155.187 1.79226e-17
6156.3477 2.17451e-17
6157.5078 2.03949e-17
6158.6685 2.12324e-17
6159.8291 2.21755e-17
6160.9893 2.28791e-17
6162.1499 1.99741e-17
6163.3105 1.76299e-17
6164.4712 2.42817e-17
6165.6318 2.0477e-17
6166.7925 2.37492e-17
6167.9536 1.99749e-17
6169.1143 1.88099e-17
6170.2749 2.39832e-17
6171.436 2.22988e-17
6172.5967 1.9986e-17
6173.7578 1.92472e-17
6174.9185 2.24491e-17
6176.0796 2.33798e-17
6177.2407 2.06033e-17
6178.4019 2.15297e-17
6179.563 2.10561e-17
6180.7241 1.86292e-17
6181.8853 2.1471e-17
6183.0464 2.13567e-17
6184.208 1.88969e-17
6185.3691 1.80167e-17
6186.5303 2.19008e-17
6187.6919 1.97709e-17
6188.8535 2.33398e-17
6190.0146 2.16008e-17
6191.1763 2.0389e-17
6192.3379 2.35641e-17
6193.4995 2.02035e-17
6194.6611 2.10061e-17
6195.8228 2.06263e-17
6196.9844 2.05835e-17
6198.146 1.81619e-17
6199.3076 2.29558e-17
6200.4697 1.88614e-17
6201.6313 2.10097e-17
6202.7935 2.08152e-17
6203.9551 2.07224e-17
6205.1172 1.85925e-17
6206.2793 1.82513e-17
6207.4414 2.11686e-17
6208.603 2.04266e-17
6209.7651 1.99069e-17
6210.9277 1.9674e-17
6212.0898 2.20777e-17
6213.252 2.12511e-17
6214.4141 2.11586e-17
6215.5762 2.18593e-17
6216.7388 1.91124e-17
6217.9009 1.97577e-17
6219.0635 2.22771e-17
6220.2261 1.83207e-17
6221.3882 2.17242e-17
6222.5508 1.94151e-17
6223.7134 2.2353e-17
6224.876 2.13001e-17
6226.0386 1.84512e-17
6227.2012 2.0773e-17
6228.3638 1.75104e-17
6229.5269 2.20859e-17
6230.6895 2.14871e-17
6231.8525 2.14612e-17
6233.0151 2.03418e-17
6234.1782 2.15487e-17
6235.3408 2.37295e-17
6236.5039 1.89693e-17
6237.667 2.27765e-17
6238.8301 2.09386e-17
6239.9932 2.05018e-17
6241.1562 2.11672e-17
6242.3193 2.09815e-17
6243.4824 2.11807e-17
6244.6455 2.1643e-17
6245.8091 2.03805e-17
6246.9722 2.14947e-17
6248.1357 1.75027e-17
6249.2988 1.9192e-17
6250.4624 2.098e-17
6251.6255 2.13832e-17
6252.7891 2.19042e-17
6253.9526 2.3105e-17
6255.1162 2.09091e-17
6256.2798 1.98004e-17
6257.4434 1.94821e-17
6258.6069 2.1556e-17
6259.771 2.1098e-17
6260.9346 1.83586e-17
6262.0981 2.38837e-17
6263.2622 2.11882e-17
6264.4258 1.94898e-17
6265.5898 2.02374e-17
6266.7539 2.07999e-17
6267.9175 2.25465e-17
6269.0815 2.20763e-17
6270.2456 2.33647e-17
6271.4097 2.13005e-17
6272.5737 2.19352e-17
6273.7378 2.01688e-17
6274.9023 1.72798e-17
6276.0664 2.3967e-17
6277.2305 1.88728e-17
6278.395 1.76192e-17
6279.5591 2.08196e-17
6280.7236 1.78454e-17
6281.8877 2.16777e-17
6283.0522 1.8596e-17
6284.2168 2.148e-17
6285.3813 2.34167e-17
6286.5459 2.52568e-17
6287.7104 2.06104e-17
6288.875 1.79715e-17
6290.0396 1.97452e-17
6291.2041 2.18078e-17
6292.3691 1.95315e-17
6293.5337 2.1236e-17
6294.6982 2.09609e-17
6295.8633 1.82567e-17
6297.0283 2.1098e-17
6298.1929 1.92739e-17
6299.3579 2.46283e-17
6300.5229 2.51256e-17
6301.688 1.90268e-17
6302.853 2.17868e-17
6304.0181 2.19961e-17
6305.1831 2.01521e-17
6306.3481 1.90635e-17
6307.5132 2.0047e-17
6308.6787 1.79661e-17
6309.8438 2.04821e-17
6311.0093 1.90999e-17
6312.1743 1.94924e-17
6313.3398 2.18143e-17
6314.5054 1.85903e-17
6315.6709 1.89621e-17
6316.8359 2.08338e-17
6318.0015 2.22758e-17
6319.167 2.02744e-17
6320.3325 2.05405e-17
6321.4985 2.19111e-17
6322.6641 2.01848e-17
6323.8296 2.02938e-17
6324.9956 1.64805e-17
6326.1611 1.71313e-17
6327.3267 1.94106e-17
6328.4927 1.60873e-17
6329.6587 2.33976e-17
6330.8247 1.81575e-17
6331.9902 2.01844e-17
6333.1562 1.76456e-17
6334.3223 1.88559e-17
6335.4883 2.05051e-17
6336.6543 1.95784e-17
6337.8208 2.10518e-17
6338.9868 2.01083e-17
6340.1528 1.97627e-17
6341.3193 2.05981e-17
6342.4854 1.9059e-17
6343.6519 2.12672e-17
6344.8179 2.25784e-17
6345.9844 2.03703e-17
6347.1509 1.82653e-17
6348.3169 2.18806e-17
6349.4834 1.96515e-17
6350.6499 1.77061e-17
6351.8164 1.76632e-17
6352.9834 1.86811e-17
6354.1499 1.94736e-17
6355.3164 2.18827e-17
6356.4829 2.34948e-17
6357.6499 2.01217e-17
6358.8164 2.22695e-17
6359.9834 1.99153e-17
6361.1499 1.73284e-17
6362.3169 2.08532e-17
6363.4839 1.81717e-17
6364.6509 1.96289e-17
6365.8179 2.1366e-17
6366.9849 2.08092e-17
6368.1519 2.14145e-17
6369.3188 1.82787e-17
6370.4858 1.83542e-17
6371.6528 2.00086e-17
6372.8203 2.36025e-17
6373.9873 1.9499e-17
6375.1548 1.8461e-17
6376.3218 1.99282e-17
6377.4893 1.73186e-17
6378.6567 1.92646e-17
6379.8237 2.05752e-17
6380.9912 2.24956e-17
6382.1587 2.23831e-17
6383.3262 2.05486e-17
6384.4937 2.03309e-17
6385.6611 1.95764e-17
6386.8291 2.08587e-17
6387.9966 1.93655e-17
6389.1641 2.0193e-17
6390.332 1.76572e-17
6391.4995 1.87118e-17
6392.6675 2.07488e-17
6393.835 1.98636e-17
6395.0029 2.02391e-17
6396.1709 2.0851e-17
6397.3389 2.02788e-17
6398.5068 2.14764e-17
6399.6748 1.77717e-17
6400.8428 1.93459e-17
6402.0107 1.87644e-17
6403.1787 1.85614e-17
6404.3467 1.8281e-17
6405.5151 1.85527e-17
6406.6831 2.07305e-17
6407.8511 1.72263e-17
6409.0195 2.03555e-17
6410.188 1.75229e-17
6411.356 2.07934e-17
6412.5244 1.95891e-17
6413.6929 1.92286e-17
6414.8613 1.93146e-17
6416.0298 2.04758e-17
6417.1982 1.99046e-17
6418.3667 2.06325e-17
6419.5352 1.91459e-17
6420.7041 1.77404e-17
6421.8726 1.89567e-17
6423.041 1.80665e-17
6424.21 2.037e-17
6425.3784 2.13769e-17
6426.5474 2.32929e-17
6427.7163 1.84261e-17
6428.8848 2.08578e-17
6430.0537 2.05863e-17
6431.2227 1.80178e-17
6432.3916 1.96295e-17
6433.5605 1.92496e-17
6434.7295 2.16684e-17
6435.8984 1.95953e-17
6437.0679 2.10261e-17
6438.2368 1.9359e-17
6439.4058 1.97003e-17
6440.5752 1.77351e-17
6441.7441 2.05196e-17
6442.9136 2.05335e-17
6444.083 1.90767e-17
6445.252 2.1057e-17
6446.4214 1.63962e-17
6447.5908 1.99614e-17
6448.7603 1.89183e-17
6449.9297 1.74894e-17
6451.0991 1.78033e-17
6452.2686 1.86691e-17
6453.438 1.82166e-17
6454.6079 1.91236e-17
6455.7773 2.08661e-17
6456.9468 2.03752e-17
6458.1167 1.98789e-17
6459.2866 2.00794e-17
6460.4561 1.79291e-17
6461.626 1.79279e-17
6462.7959 1.93825e-17
6463.9658 2.17099e-17
6465.1357 2.10323e-17
6466.3052 1.87041e-17
6467.4751 2.06149e-17
6468.6455 2.01408e-17
6469.8154 1.99677e-17
6470.9854 2.0227e-17
6472.1553 1.94295e-17
6473.3257 1.88078e-17
6474.4956 1.802e-17
6475.666 1.51157e-17
6476.8359 1.85771e-17
6478.0063 1.84258e-17
6479.1768 1.87267e-17
6480.3472 1.74754e-17
6481.5171 1.86708e-17
6482.6875 2.05099e-17
6483.8579 2.06612e-17
6485.0288 1.9829e-17
6486.1992 2.07079e-17
6487.3696 1.81322e-17
6488.54 2.23128e-17
6489.7109 1.85843e-17
6490.8813 1.96918e-17
6492.0518 1.6366e-17
6493.2227 1.87872e-17
6494.3936 1.86054e-17
6495.564 1.82434e-17
6496.7349 1.9495e-17
6497.9058 2.00966e-17
6499.0767 2.11329e-17
6500.2476 2.03733e-17
6501.4185 1.70528e-17
6502.5894 2.17612e-17
6503.7603 1.70179e-17
6504.9316 1.94229e-17
6506.1025 1.90487e-17
6507.2734 1.73628e-17
6508.4448 2.00046e-17
6509.6157 1.88232e-17
6510.7871 2.06089e-17
6511.958 1.83542e-17
6513.1294 1.98577e-17
6514.3008 1.84757e-17
6515.4722 1.71531e-17
6516.6436 2.10005e-17
6517.8149 1.89478e-17
6518.9863 1.78733e-17
6520.1577 2.17779e-17
6521.3291 2.11659e-17
6522.5005 1.7109e-17
6523.6719 1.83773e-17
6524.8438 1.97195e-17
6526.0151 1.92613e-17
6527.187 1.72549e-17
6528.3589 1.93978e-17
6529.5303 1.81833e-17
6530.7021 1.89985e-17
6531.874 1.66091e-17
6533.0459 1.75477e-17
6534.2178 1.82397e-17
6535.3892 2.06876e-17
6536.5615 1.71012e-17
6537.7334 1.7215e-17
6538.9053 2.19628e-17
6540.0771 1.81608e-17
6541.2495 1.75033e-17
6542.4214 2.04069e-17
6543.5933 2.07621e-17
6544.7656 1.45871e-17
6545.938 1.91161e-17
6547.1099 1.59254e-17
6548.2822 2.00963e-17
6549.4546 1.82482e-17
6550.627 2.13136e-17
6551.7993 1.73293e-17
6552.9717 2.01278e-17
6554.144 1.73258e-17
6555.3164 1.8302e-17
6556.4888 2.00267e-17
6557.6611 1.79129e-17
6558.834 2.03822e-17
6560.0063 2.06818e-17
6561.1792 1.63162e-17
6562.3516 2.06877e-17
6563.5244 1.85215e-17
6564.6968 2.00344e-17
6565.8696 2.10231e-17
6567.0425 2.14971e-17
6568.2153 1.98053e-17
6569.3882 1.93162e-17
6570.561 1.79591e-17
6571.7339 1.78991e-17
6572.9067 1.90222e-17
6574.0796 1.98299e-17
6575.2524 1.64712e-17
6576.4258 1.8746e-17
6577.5986 1.76249e-17
6578.7715 1.5429e-17
6579.9448 1.6369e-17
6581.1182 1.89538e-17
6582.291 2.05262e-17
6583.4644 1.77935e-17
6584.6377 1.67984e-17
6585.811 1.81929e-17
6586.9844 1.74824e-17
6588.1577 2.02683e-17
6589.3311 1.95464e-17
6590.5044 1.75134e-17
6591.6777 1.5265e-17
6592.8511 1.79815e-17
6594.0249 2.10501e-17
6595.1982 2.0459e-17
6596.3716 1.95344e-17
6597.5454 1.93655e-17
6598.7192 1.99281e-17
6599.8926 1.91013e-17
6601.0664 1.68501e-17
6602.2402 1.93134e-17
6603.4136 1.98279e-17
6604.5874 2.04558e-17
6605.7612 1.82303e-17
6606.9351 1.84128e-17
6608.1089 1.95972e-17
6609.2832 1.71706e-17
6610.457 1.75063e-17
6611.6309 1.6643e-17
6612.8047 1.86299e-17
6613.979 1.91028e-17
6615.1528 1.91971e-17
6616.3271 2.16213e-17
6617.501 1.92503e-17
6618.6753 1.87299e-17
6619.8496 1.73461e-17
6621.0239 1.85304e-17
6622.1982 1.73498e-17
6623.3726 1.76511e-17
6624.5469 1.74852e-17
6625.7212 1.79498e-17
6626.8955 1.75972e-17
6628.0698 1.84873e-17
6629.2441 1.81844e-17
6630.4189 1.82777e-17
6631.5933 1.72177e-17
6632.7676 1.78829e-17
6633.9424 1.87537e-17
6635.1172 1.72813e-17
6636.2915 1.97645e-17
6637.4663 1.70285e-17
6638.6411 1.98963e-17
6639.8159 1.83063e-17
6640.9907 2.07124e-17
6642.1655 1.99472e-17
6643.3403 1.94775e-17
6644.5151 1.87071e-17
6645.6899 1.70412e-17
6646.8647 1.93075e-17
6648.0396 1.70962e-17
6649.2148 1.94651e-17
6650.3896 1.60227e-17
6651.5649 2.05632e-17
6652.7397 1.86466e-17
6653.915 1.91422e-17
6655.0903 1.98472e-17
6656.2651 1.80873e-17
6657.4404 1.90828e-17
6658.6157 2.02392e-17
6659.791 2.11622e-17
6660.9663 2.12976e-17
6662.1416 1.99246e-17
6663.3169 1.79741e-17
6664.4922 1.75174e-17
6665.6675 1.6766e-17
6666.8433 1.7676e-17
6668.0186 1.61726e-17
6669.1943 1.90121e-17
6670.3696 1.90629e-17
6671.5454 1.56126e-17
6672.7207 1.87782e-17
6673.8965 1.84218e-17
6675.0723 1.6784e-17
6676.2476 1.86533e-17
6677.4233 1.85577e-17
6678.5991 2.12113e-17
6679.7749 1.66381e-17
6680.9507 1.93296e-17
6682.1265 1.86971e-17
6683.3027 1.72382e-17
6684.4785 1.64041e-17
6685.6543 1.85251e-17
6686.8306 1.81864e-17
6688.0063 1.65232e-17
6689.1826 1.57934e-17
6690.3584 1.94422e-17
6691.5347 1.72533e-17
6692.7109 1.92575e-17
6693.8867 1.95236e-17
6695.063 1.81836e-17
6696.2393 1.71516e-17
6697.4155 1.76799e-17
6698.5918 1.98786e-17
6699.7681 1.81644e-17
6700.9443 1.88157e-17
6702.1211 1.57789e-17
6703.2974 1.75872e-17
6704.4736 1.88017e-17
6705.6499 1.8106e-17
6706.8267 1.9911e-17
6708.0034 1.7456e-17
6709.1797 1.8824e-17
6710.3564 1.647e-17
6711.5327 1.98571e-17
6712.7095 1.75898e-17
6713.8862 1.7686e-17
6715.063 1.88147e-17
6716.2397 1.8928e-17
6717.4165 1.74192e-17
6718.5933 1.86057e-17
6719.77 1.81171e-17
6720.9468 1.93761e-17
6722.124 1.74985e-17
6723.3008 1.93625e-17
6724.4775 1.74494e-17
6725.6548 1.80069e-17
6726.8315 1.89225e-17
6728.0088 1.88212e-17
6729.1855 1.87063e-17
6730.3628 2.01824e-17
6731.54 1.85385e-17
6732.7173 2.03092e-17
6733.8945 1.70149e-17
6735.0713 1.64449e-17
6736.2485 1.90717e-17
6737.4258 1.66978e-17
6738.6035 1.93045e-17
6739.7808 1.88911e-17
6740.958 1.82258e-17
6742.1353 1.86814e-17
6743.313 2.10808e-17
6744.4902 1.82151e-17
6745.668 1.8891e-17
6746.8452 1.83894e-17
6748.0229 1.77125e-17
6749.2002 1.74627e-17
6750.3779 1.83446e-17
6751.5557 2.13594e-17
6752.7334 2.68467e-17
6753.9111 3.79846e-17
6755.0889 5.42705e-17
6756.2666 6.50878e-17
6757.4443 7.52644e-17
6758.6221 7.06667e-17
6759.7998 5.95895e-17
6760.978 3.94952e-17
6762.1558 2.79544e-17
6763.3335 1.87433e-17
6764.5117 1.97785e-17
6765.6895 1.78235e-17
6766.8677 1.5232e-17
6768.0459 1.79337e-17
6769.2236 1.69429e-17
6770.4019 1.73672e-17
6771.5801 1.67553e-17
6772.7583 1.71015e-17
6773.9365 1.85747e-17
6775.1147 1.8265e-17
6776.293 2.09033e-17
6777.4712 1.87343e-17
6778.6494 2.31184e-17
6779.8276 2.10852e-17
6781.0063 1.99032e-17
6782.1846 1.84988e-17
6783.3633 1.78546e-17
6784.5415 1.78469e-17
6785.7202 1.76734e-17
6786.8984 1.65122e-17
6788.0771 1.7516e-17
6789.2559 1.74105e-17
6790.4341 1.79227e-17
6791.6128 1.75845e-17
6792.7915 1.75634e-17
6793.9702 1.8944e-17
6795.1489 1.68502e-17
6796.3276 1.95366e-17
6797.5068 1.82179e-17
6798.6855 1.79017e-17
6799.8643 1.79147e-17
6801.043 1.7984e-17
6802.2222 1.89861e-17
6803.4009 1.99468e-17
6804.5801 1.77362e-17
6805.7588 1.84034e-17
6806.938 1.92754e-17
6808.1172 1.70583e-17
6809.2959 1.69943e-17
6810.4751 1.68777e-17
6811.6543 1.93475e-17
6812.8335 1.9279e-17
6814.0127 1.85367e-17
6815.1919 1.89171e-17
6816.3711 1.92588e-17
6817.5503 1.79066e-17
6818.7295 1.80034e-17
6819.9092 1.92829e-17
6821.0884 1.91906e-17
6822.2676 1.65746e-17
6823.4473 1.79803e-17
6824.6265 2.11659e-17
6825.8062 1.79475e-17
6826.9858 1.98632e-17
6828.165 1.91183e-17
6829.3447 1.7282e-17
6830.5244 1.80678e-17
6831.7041 1.98857e-17
6832.8838 1.84809e-17
6834.0635 2.02442e-17
6835.2432 1.66112e-17
6836.4229 1.61995e-17
6837.6025 1.55327e-17
6838.7822 1.55434e-17
6839.9624 1.86734e-17
6841.1421 1.81849e-17
6842.3218 1.77913e-17
6843.502 1.81392e-17
6844.6816 1.97256e-17
6845.8618 1.78056e-17
6847.042 1.75901e-17
6848.2217 1.78195e-17
6849.4019 1.81818e-17
6850.582 1.78819e-17
6851.7622 1.66842e-17
6852.9424 1.83803e-17
6854.1221 1.74152e-17
6855.3027 1.74829e-17
6856.4829 1.7567e-17
6857.6631 1.75494e-17
6858.8433 1.95097e-17
6860.0234 1.60756e-17
6861.2041 1.94276e-17
6862.3843 1.55507e-17
6863.5649 1.81175e-17
6864.7451 1.45423e-17
6865.9258 1.57829e-17
6867.106 1.78122e-17
6868.2866 1.44551e-17
6869.4673 1.91652e-17
6870.6475 1.88366e-17
6871.8281 1.46779e-17
6873.0088 1.80603e-17
6874.1895 1.54926e-17
6875.3701 1.71574e-17
6876.5508 1.59202e-17
6877.7319 1.92099e-17
6878.9126 1.67051e-17
6880.0933 1.85711e-17
6881.2739 1.83168e-17
6882.4551 1.64009e-17
6883.6357 1.99888e-17
6884.8164 1.87479e-17
6885.9976 1.88879e-17
6887.1787 2.03832e-17
6888.3594 1.65789e-17
6889.5405 1.76227e-17
6890.7217 1.80537e-17
6891.9028 1.75258e-17
6893.0835 1.68287e-17
6894.2651 1.94916e-17
6895.4458 1.90567e-17
6896.6274 1.74354e-17
6897.8086 2.04992e-17
6898.9897 1.69834e-17
6900.1709 1.45448e-17
6901.3521 1.79098e-17
6902.5337 1.73744e-17
6903.7148 1.87987e-17
6904.896 1.69074e-17
6906.0776 1.66888e-17
6907.2593 1.77702e-17
6908.4404 1.97498e-17
6909.6221 1.5838e-17
6910.8037 1.93074e-17
6911.9849 2.34266e-17
6913.1665 2.62542e-17
6914.3481 2.876e-17
6915.5298 2.45406e-17
6916.7114 2.98301e-17
6917.8931 2.6347e-17
6919.0747 2.33169e-17
6920.2568 2.03272e-17
6921.4385 2.14612e-17
6922.6201 1.83805e-17
6923.8018 1.70792e-17
6924.9839 2.01931e-17
6926.1655 2.14055e-17
6927.3477 2.32169e-17
6928.5293 2.54603e-17
6929.7114 2.6003e-17
6930.8936 2.56152e-17
6932.0757 2.39246e-17
6933.2573 2.30773e-17
6934.4395 1.89314e-17
6935.6216 1.72382e-17
6936.8037 2.0633e-17
6937.9858 1.65522e-17
6939.168 1.78442e-17
6940.3501 1.70933e-17
6941.5327 1.59757e-17
6942.7148 1.82708e-17
6943.897 1.87649e-17
6945.0791 1.77309e-17
6946.2617 1.88914e-17
6947.4438 1.86163e-17
6948.6265 1.6536e-17
6949.8086 1.72459e-17
6950.9912 1.95928e-17
6952.1738 1.78313e-17
6953.356 1.75006e-17
6954.5386 1.70436e-17
6955.7212 1.92985e-17
6956.9038 1.56956e-17
6958.0864 1.79673e-17
6959.269 1.44679e-17
6960.4517 1.70734e-17
6961.6343 1.7465e-17
6962.8174 1.67719e-17
6964 1.85485e-17
6965.1826 1.76233e-17
6966.3657 1.58655e-17
6967.5483 1.82832e-17
6968.731 1.77343e-17
6969.9141 1.75032e-17
6971.0967 1.79331e-17
6972.2798 1.5423e-17
6973.4629 1.80903e-17
6974.646 2.1093e-17
6975.8286 1.69239e-17
6977.0117 1.73875e-17
6978.1948 1.74082e-17
6979.3779 1.68223e-17
6980.561 1.48398e-17
6981.7441 1.8128e-17
6982.9272 1.77954e-17
6984.1108 1.71736e-17
6985.2939 1.74717e-17
6986.4771 1.81931e-17
6987.6602 1.68085e-17
6988.8438 1.91552e-17
6990.0269 1.68726e-17
6991.2104 1.75319e-17
6992.3936 1.7619e-17
6993.5771 1.74123e-17
6994.7607 1.7373e-17
6995.9438 1.80163e-17
6997.1274 1.70077e-17
6998.311 1.71774e-17
6999.4946 1.69803e-17
7000.6782 1.77173e-17
7001.8618 1.57525e-17
7003.0454 1.74732e-17
7004.229 1.84013e-17
7005.4126 1.78313e-17
7006.5962 1.64966e-17
7007.7798 1.6642e-17
7008.9639 1.61716e-17
7010.1475 1.7955e-17
7011.3315 1.48533e-17
7012.5151 1.71449e-17
7013.6992 1.65148e-17
7014.8828 1.66667e-17
7016.0669 1.8054e-17
7017.2505 1.67808e-17
7018.4346 1.6936e-17
7019.6187 1.62388e-17
7020.8027 1.56694e-17
7021.9868 1.76009e-17
7023.1709 1.88876e-17
7024.355 1.70524e-17
7025.5391 1.76115e-17
7026.7231 1.83239e-17
7027.9072 1.79547e-17
7029.0913 1.82839e-17
7030.2754 1.69835e-17
7031.46 1.76561e-17
7032.644 1.73872e-17
7033.8286 1.83263e-17
7035.0127 1.79272e-17
7036.1973 1.75565e-17
7037.3813 1.82223e-17
7038.5659 1.76723e-17
7039.7505 2.00953e-17
7040.9346 1.98151e-17
7042.1191 1.60583e-17
7043.3037 1.83249e-17
7044.4883 1.79483e-17
7045.6729 1.70005e-17
7046.8574 1.72504e-17
7048.042 1.52848e-17
7049.2266 1.67882e-17
7050.4111 1.76505e-17
7051.5957 1.47303e-17
7052.7808 1.52078e-17
7053.9653 1.56295e-17
7055.1499 1.79703e-17
7056.335 1.76781e-17
7057.5195 1.74777e-17
7058.7046 1.72911e-17
7059.8892 1.7776e-17
7061.0742 1.81505e-17
7062.2593 1.62331e-17
7063.4443 1.84939e-17
7064.6289 1.7892e-17
7065.814 1.78787e-17
7066.999 1.59142e-17
7068.1841 1.76991e-17
7069.3691 1.55739e-17
7070.5542 1.93008e-17
7071.7393 1.80282e-17
7072.9243 1.79287e-17
7074.1094 1.72839e-17
7075.2949 1.77483e-17
7076.48 1.57443e-17
7077.6655 1.77346e-17
7078.8506 1.71992e-17
7080.0356 1.7935e-17
7081.2212 1.58179e-17
7082.4067 1.53625e-17
7083.5918 1.6893e-17
7084.7773 1.64174e-17
7085.9624 1.69668e-17
7087.1479 1.77941e-17
7088.3335 1.79754e-17
7089.519 1.89355e-17
7090.7046 1.71404e-17
7091.8901 1.64228e-17
7093.0757 1.57501e-17
7094.2612 1.63246e-17
7095.4468 1.70171e-17
7096.6323 1.76215e-17
7097.8179 1.87448e-17
7099.0039 1.73231e-17
7100.1895 1.80364e-17
7101.3755 1.83167e-17
7102.561 1.74097e-17
7103.7466 1.59562e-17
7104.9326 1.78718e-17
7106.1187 1.86344e-17
7107.3042 1.74056e-17
7108.4902 1.70979e-17
7109.6763 1.91435e-17
7110.8623 1.6898e-17
7112.0479 1.63517e-17
7113.2339 1.80091e-17
7114.4199 1.72209e-17
7115.606 1.71773e-17
7116.792 1.84787e-17
7117.978 1.69977e-17
7119.1641 1.7536e-17
7120.3506 1.61604e-17
7121.5366 1.62993e-17
7122.7227 1.77671e-17
7123.9092 1.95454e-17
7125.0952 1.74552e-17
7126.2817 1.90808e-17
7127.4678 1.77195e-17
7128.6543 1.61009e-17
7129.8403 1.49603e-17
7131.0269 1.55662e-17
7132.2129 1.63738e-17
7133.3994 1.64171e-17
7134.5859 1.68428e-17
7135.7725 1.57599e-17
7136.959 1.69985e-17
7138.1455 1.73941e-17
7139.332 1.84722e-17
7140.5186 1.55313e-17
7141.7051 1.85175e-17
7142.8916 1.74281e-17
7144.0781 1.79139e-17
7145.2651 1.61555e-17
7146.4517 1.87587e-17
7147.6382 1.5387e-17
7148.8252 1.63802e-17
7150.0117 1.58014e-17
7151.1987 1.58681e-17
7152.3853 1.5314e-17
7153.5723 1.72876e-17
7154.7588 1.58975e-17
7155.9458 1.72692e-17
7157.1328 1.86505e-17
7158.3198 1.7797e-17
7159.5063 1.71201e-17
7160.6934 1.56685e-17
7161.8804 1.59124e-17
7163.0674 1.73687e-17
7164.2544 1.65103e-17
7165.4414 1.71742e-17
7166.6284 1.78931e-17
7167.8159 1.78426e-17
7169.0029 1.84662e-17
7170.1899 1.58969e-17
7171.3774 1.79968e-17
7172.5645 1.81736e-17
7173.7515 1.58761e-17
7174.939 1.69832e-17
7176.126 1.69278e-17
7177.3135 1.6143e-17
7178.5005 1.75095e-17
7179.688 1.53095e-17
7180.8755 1.78917e-17
7182.063 1.42562e-17
7183.25 1.62128e-17
7184.4375 1.54628e-17
7185.625 1.64328e-17
7186.8125 1.71904e-17
7188 1.35594e-17
7189.1875 1.51867e-17
7190.375 1.80926e-17
7191.563 1.58927e-17
7192.7505 1.57664e-17
7193.938 1.73873e-17
7195.1255 1.44924e-17
7196.3135 1.68025e-17
7197.501 1.5784e-17
7198.6885 1.6187e-17
7199.8765 1.76212e-17
7201.064 1.70606e-17
7202.252 1.73038e-17
7203.4399 1.89843e-17
7204.6279 1.61287e-17
7205.8154 1.60787e-17
7207.0034 1.56453e-17
7208.1914 1.71838e-17
7209.3794 1.57195e-17
7210.5674 1.68063e-17
7211.7554 1.57641e-17
7212.9434 1.53575e-17
7214.1313 1.75715e-17
7215.3193 1.64191e-17
7216.5073 1.68056e-17
7217.6953 1.79144e-17
7218.8833 1.69616e-17
7220.0718 1.3764e-17
7221.2598 1.62207e-17
7222.4482 1.6556e-17
7223.6362 1.80022e-17
7224.8242 1.80097e-17
7226.0127 1.71403e-17
7227.2007 1.83024e-17
7228.3892 1.67052e-17
7229.5776 1.73125e-17
7230.7661 1.67213e-17
7231.9541 1.66155e-17
7233.1426 1.69504e-17
7234.3311 1.75958e-17
7235.5195 1.62684e-17
7236.708 1.46544e-17
7237.8965 1.88843e-17
7239.085 1.57115e-17
7240.2734 1.6732e-17
7241.4619 2.04985e-17
7242.6504 1.4242e-17
7243.8394 1.50435e-17
7245.0278 1.76893e-17
7246.2163 1.85942e-17
7247.4053 1.78013e-17
7248.5938 1.68338e-17
7249.7827 1.64704e-17
7250.9712 1.53959e-17
7252.1597 1.51865e-17
7253.3486 1.67811e-17
7254.5376 1.55434e-17
7255.7261 1.72288e-17
7256.915 1.68693e-17
7258.104 1.66898e-17
7259.293 1.58037e-17
7260.4819 1.70516e-17
7261.6709 1.48318e-17
7262.8599 1.85629e-17
7264.0488 1.86112e-17
7265.2378 1.92357e-17
7266.4268 1.99153e-17
7267.6157 1.51313e-17
7268.8047 1.62682e-17
7269.9941 1.54628e-17
7271.1831 1.65235e-17
7272.3721 1.54061e-17
7273.5615 1.66276e-17
7274.7505 2.35739e-17
7275.9399 1.58052e-17
7277.1289 2.22964e-17
7278.3184 1.92853e-17
7279.5073 1.19063e-17
7280.6968 1.76172e-17
7281.8862 1.59411e-17
7283.0752 1.75232e-17
7284.2646 1.69804e-17
7285.4541 1.57655e-17
7286.6436 1.51013e-17
7287.833 1.58722e-17
7289.0225 1.56062e-17
7290.2119 1.46526e-17
7291.4014 1.79677e-17
7292.5908 1.49878e-17
7293.7803 1.62058e-17
7294.9697 1.97222e-17
7296.1597 1.54411e-17
7297.3491 1.34035e-17
7298.5386 1.55102e-17
7299.7285 1.66293e-17
7300.918 1.58766e-17
7302.1079 1.47244e-17
7303.2974 1.73407e-17
7304.4873 1.41397e-17
7305.6768 1.84461e-17
7306.8667 1.68684e-17
7308.0566 1.84838e-17
7309.2461 1.68768e-17
7310.436 1.64438e-17
7311.626 1.60229e-17
7312.8159 1.42374e-17
7314.0059 1.60346e-17
7315.1958 1.81297e-17
7316.3857 1.50564e-17
7317.5757 1.60996e-17
7318.7656 1.39846e-17
7319.9556 1.65996e-17
7321.1455 1.71439e-17
7322.3354 1.30423e-17
7323.5259 1.64868e-17
7324.7158 1.66791e-17
7325.9058 1.62018e-17
7327.0962 1.53574e-17
7328.2861 1.65934e-17
7329.4766 1.57189e-17
7330.6665 1.64669e-17
7331.8569 1.95395e-17
7333.0469 1.62767e-17
7334.2373 1.6302e-17
7335.4277 1.50732e-17
7336.6177 1.56796e-17
7337.8081 1.7568e-17
7338.9985 1.75823e-17
7340.189 1.46682e-17
7341.3794 1.37509e-17
7342.5698 1.47328e-17
7343.7603 1.61584e-17
7344.9507 1.39138e-17
7346.1411 1.54195e-17
7347.3315 1.6259e-17
7348.522 1.72383e-17
7349.7129 1.80456e-17
7350.9033 1.56425e-17
7352.0938 1.53529e-17
7353.2847 1.57122e-17
7354.4751 1.49748e-17
7355.666 1.47314e-17
7356.8564 1.48624e-17
7358.0469 1.51291e-17
7359.2378 1.27169e-17
7360.4287 1.58978e-17
7361.6191 1.54241e-17
7362.8101 1.67994e-17
7364.001 1.47857e-17
7365.1919 1.59839e-17
7366.3823 1.865e-17
7367.5732 1.61535e-17
7368.7642 1.4724e-17
7369.9551 1.43343e-17
7371.146 1.77379e-17
7372.3369 1.49233e-17
7373.5278 1.61544e-17
7374.7192 1.43482e-17
7375.9102 1.65578e-17
7377.1011 1.52271e-17
7378.292 1.76385e-17
7379.4829 1.40257e-17
7380.6743 1.75946e-17
7381.8652 1.54375e-17
7383.0566 1.48193e-17
7384.2476 1.5e-17
7385.4385 1.57096e-17
7386.6299 1.50553e-17
7387.8213 1.62616e-17
7389.0122 1.62189e-17
7390.2036 1.47478e-17
7391.395 1.74066e-17
7392.5859 1.34608e-17
7393.7773 1.63846e-17
7394.9688 1.54595e-17
7396.1602 1.42868e-17
7397.3516 1.53256e-17
7398.543 1.98889e-17
7399.7344 1.66837e-17
7400.9258 1.95416e-17
7402.1172 1.54551e-17
7403.3086 1.62815e-17
7404.5 1.45363e-17
7405.6919 1.50871e-17
7406.8833 1.56057e-17
7408.0747 1.63107e-17
7409.2661 1.53926e-17
7410.458 1.59075e-17
7411.6494 1.64533e-17
7412.8413 1.56012e-17
7414.0327 1.57838e-17
7415.2246 1.61818e-17
7416.416 1.59016e-17
7417.6079 1.50879e-17
7418.7998 1.40152e-17
7419.9912 1.63733e-17
7421.1831 1.5304e-17
7422.375 1.52798e-17
7423.5669 1.54528e-17
7424.7588 1.72478e-17
7425.9502 1.58271e-17
7427.1421 1.58624e-17
7428.334 1.7957e-17
7429.5259 1.58585e-17
7430.7178 1.52464e-17
7431.9102 1.67641e-17
7433.1021 1.42378e-17
7434.2939 1.34035e-17
7435.4858 1.78981e-17
7436.6782 1.62498e-17
7437.8701 1.42803e-17
7439.062 2.0739e-17
7440.2544 1.59997e-17
7441.4463 1.39157e-17
7442.6382 1.53837e-17
7443.8306 1.65624e-17
7445.0225 1.57595e-17
7446.2148 1.50249e-17
7447.4072 1.50069e-17
7448.5996 1.48013e-17
7449.7915 1.61176e-17
7450.9839 1.3963e-17
7452.1763 1.41193e-17
7453.3687 1.39922e-17
7454.561 1.61119e-17
7455.7529 1.55151e-17
7456.9453 1.66447e-17
7458.1377 1.66087e-17
7459.3301 1.59836e-17
7460.5225 1.46862e-17
7461.7153 1.55648e-17
7462.9077 1.49806e-17
7464.1001 1.63327e-17
7465.2925 1.37795e-17
7466.4849 1.4771e-17
7467.6777 1.37849e-17
7468.8701 1.47623e-17
7470.0625 1.69764e-17
7471.2554 1.62559e-17
7472.4478 1.33431e-17
7473.6406 1.85012e-17
7474.833 1.67204e-17
7476.0259 1.57004e-17
7477.2188 1.61449e-17
7478.4111 1.64425e-17
7479.604 1.49825e-17
7480.7969 1.56632e-17
7481.9893 1.72606e-17
7483.1821 1.38325e-17
7484.375 1.6565e-17
7485.5679 1.58568e-17
7486.7607 1.51853e-17
7487.9536 1.6629e-17
7489.1465 1.72829e-17
7490.3394 1.5476e-17
7491.5322 1.5008e-17
7492.7251 1.54859e-17
7493.918 1.57604e-17
7495.1113 1.63287e-17
7496.3042 1.67283e-17
7497.4971 1.54205e-17
7498.6904 1.44433e-17
7499.8833 1.60256e-17
7501.0762 1.42295e-17
7502.2695 1.6e-17
7503.4624 1.4819e-17
7504.6558 1.70781e-17
7505.8486 1.52968e-17
7507.042 1.44156e-17
7508.2349 1.77823e-17
7509.4282 1.3702e-17
7510.6216 1.51155e-17
7511.8149 1.56895e-17
7513.0078 1.76693e-17
7514.2012 1.43677e-17
7515.3945 1.52781e-17
7516.5879 1.57218e-17
7517.7812 1.71996e-17
7518.9746 1.47279e-17
7520.168 1.48338e-17
7521.3613 1.23093e-17
7522.5547 1.6035e-17
7523.748 1.56419e-17
7524.9414 1.32197e-17
7526.1348 1.25286e-17
7527.3286 1.41244e-17
7528.522 1.53825e-17
7529.7153 1.39006e-17
7530.9087 1.5721e-17
7532.1025 1.52028e-17
7533.2959 1.60284e-17
7534.4897 1.5286e-17
7535.6831 1.50781e-17
7536.877 1.64056e-17
7538.0703 1.48141e-17
7539.2642 1.83572e-17
7540.4575 1.59558e-17
7541.6514 1.43034e-17
7542.8452 1.59249e-17
7544.0386 1.62836e-17
7545.2324 1.68606e-17
7546.4263 1.57851e-17
7547.6201 1.44223e-17
7548.814 1.63403e-17
7550.0078 1.53274e-17
7551.2017 1.71309e-17
7552.3955 1.55558e-17
7553.5894 1.74024e-17
7554.7832 1.48745e-17
7555.9771 1.73436e-17
7557.1709 1.42604e-17
7558.3647 1.52497e-17
7559.5586 1.65332e-17
7560.7529 1.56666e-17
7561.9468 1.72065e-17
7563.1406 1.63258e-17
7564.335 1.51617e-17
7565.5288 1.51778e-17
7566.7227 1.38465e-17
7567.917 1.33034e-17
7569.1113 1.7322e-17
7570.3052 1.4532e-17
7571.4995 1.33391e-17
7572.6934 1.40326e-17
7573.8877 1.48565e-17
7575.082 1.60136e-17
7576.2759 1.45761e-17
7577.4702 1.45635e-17
7578.6646 1.35609e-17
7579.8589 1.60923e-17
7581.0532 1.72069e-17
7582.2471 1.64209e-17
7583.4414 1.43972e-17
7584.6357 1.51142e-17
7585.8301 1.76739e-17
7587.0244 1.5965e-17
7588.2192 1.80076e-17
7589.4136 1.79398e-17
7590.6079 1.63936e-17
7591.8022 1.58948e-17
7592.9966 1.63208e-17
7594.1909 1.53056e-17
7595.3857 1.7285e-17
7596.5801 1.57951e-17
7597.7744 1.0588e-17
7598.9692 1.51966e-17
7600.1636 1.57557e-17
7601.3584 1.08318e-17
7602.5527 1.58356e-17
7603.7471 1.65876e-17
7604.9419 1.78411e-17
7606.1367 1.37859e-17
7607.3311 1.56293e-17
7608.5259 1.23666e-17
7609.7207 1.55479e-17
7610.9155 1.36157e-17
7612.1099 1.26923e-17
7613.3047 1.08406e-17
7614.4995 1.32387e-17
7615.6943 1.52819e-17
7616.8892 1.1218e-17
7618.084 1.44626e-17
7619.2788 1.66399e-17
7620.4736 1.67369e-17
7621.6685 1.66843e-17
7622.8633 1.69948e-17
7624.0581 1.83012e-17
7625.2529 1.75561e-17
7626.4478 1.68516e-17
7627.6426 1.69179e-17
7628.8379 1.40227e-17
7630.0327 1.70152e-17
7631.2275 1.54082e-17
7632.4224 1.56566e-17
7633.6177 1.44549e-17
7634.8125 1.36786e-17
7636.0078 1.3451e-17
7637.2026 1.43235e-17
7638.3979 1.26703e-17
7639.5928 1.44651e-17
7640.7881 1.36927e-17
7641.9829 1.07218e-17
7643.1782 1.49004e-17
7644.3735 1.58164e-17
7645.5684 1.15456e-17
7646.7637 1.39491e-17
7647.959 1.39299e-17
7649.1543 1.58839e-17
7650.3496 1.51486e-17
7651.5449 1.33136e-17
7652.7402 1.51556e-17
7653.9351 1.51432e-17
7655.1304 1.50528e-17
7656.3257 1.49043e-17
7657.521 1.20795e-17
7658.7163 1.54675e-17
7659.9121 1.42902e-17
7661.1074 1.40064e-17
7662.3027 1.35921e-17
7663.498 1.49311e-17
7664.6934 1.32031e-17
7665.8892 1.65351e-17
7667.0845 1.53161e-17
7668.2798 1.49978e-17
7669.4756 1.57346e-17
7670.6709 1.50696e-17
7671.8662 1.45064e-17
7673.062 1.36952e-17
7674.2573 1.54764e-17
7675.4531 1.65145e-17
7676.6489 1.38357e-17
7677.8442 1.41253e-17
7679.04 1.54973e-17
7680.2354 1.41871e-17
7681.4312 1.50809e-17
7682.627 1.67238e-17
7683.8223 1.44336e-17
7685.0181 1.4692e-17
7686.2139 1.44062e-17
7687.4097 1.45839e-17
7688.6055 1.36447e-17
7689.8013 1.7e-17
7690.9971 1.57867e-17
7692.1929 1.49737e-17
7693.3887 1.50029e-17
7694.5845 1.41337e-17
7695.7803 1.51894e-17
7696.9761 1.51612e-17
7698.1719 1.59664e-17
7699.3677 1.3898e-17
7700.5635 1.59551e-17
7701.7598 1.3332e-17
7702.9556 1.4711e-17
7704.1514 1.45825e-17
7705.3472 1.55193e-17
7706.5435 1.37109e-17
7707.7393 1.63989e-17
7708.9355 1.5042e-17
7710.1313 1.74705e-17
7711.3276 1.65724e-17
7712.5234 1.5504e-17
7713.7197 1.35539e-17
7714.9155 1.83786e-17
7716.1118 1.37703e-17
7717.3076 1.50173e-17
7718.5039 1.41838e-17
7719.7002 1.60028e-17
7720.896 1.47263e-17
7722.0923 1.53114e-17
7723.2886 1.55629e-17
7724.4849 1.58034e-17
7725.6812 1.44822e-17
7726.8774 1.5286e-17
7728.0732 1.40685e-17
7729.2695 1.39054e-17
7730.4658 1.56371e-17
7731.6621 1.6082e-17
7732.8584 1.36208e-17
7734.0547 1.53351e-17
7735.251 1.39497e-17
7736.4473 1.59184e-17
7737.644 1.41761e-17
7738.8403 1.57462e-17
7740.0366 1.50891e-17
7741.2329 1.63424e-17
7742.4297 1.45798e-17
7743.626 1.45906e-17
7744.8223 1.37911e-17
7746.019 1.24016e-17
7747.2153 1.0678e-17
7748.4116 1.31203e-17
7749.6084 7.73675e-18
7750.8047 1.49608e-17
7752.0015 1.56104e-17
7753.1978 1.21431e-17
7754.3945 1.49095e-17
7755.5908 1.74293e-17
7756.7876 1.49879e-17
7757.9844 1.4454e-17
7759.1807 1.41856e-17
7760.3774 1.36654e-17
7761.5742 1.27004e-17
7762.771 1.81779e-17
7763.9673 1.59838e-17
7765.1641 1.7514e-17
7766.3608 1.47334e-17
7767.5576 1.49875e-17
7768.7544 1.33345e-17
7769.9512 1.49454e-17
7771.1479 1.39154e-17
7772.3447 1.57088e-17
7773.5415 1.46812e-17
7774.7383 1.63655e-17
7775.9351 1.49019e-17
7777.1318 1.39464e-17
7778.3286 1.51075e-17
7779.5254 1.77904e-17
7780.7222 1.50659e-17
7781.9194 1.50512e-17
7783.1162 1.39726e-17
7784.313 1.57669e-17
7785.5098 1.55063e-17
7786.707 1.36701e-17
7787.9038 1.50472e-17
7789.1006 1.44773e-17
7790.2979 1.50544e-17
7791.4946 1.54678e-17
7792.6919 1.68045e-17
7793.8887 1.65726e-17
7795.0859 1.33916e-17
7796.2827 1.63957e-17
7797.48 1.41724e-17
7798.6772 1.30828e-17
7799.874 1.52341e-17
7801.0713 1.50374e-17
7802.2686 1.60646e-17
7803.4653 1.46342e-17
7804.6626 1.27663e-17
7805.8599 1.50132e-17
7807.0571 1.47496e-17
7808.2544 1.17094e-17
7809.4512 1.31673e-17
7810.6484 1.64677e-17
7811.8457 1.40851e-17
7813.043 1.45721e-17
7814.2402 1.43349e-17
7815.4375 1.52367e-17
7816.6348 1.21589e-17
7817.832 1.46112e-17
7819.0293 1.40085e-17
7820.2266 1.96097e-17
7821.4238 1.47404e-17
7822.6216 1.67047e-17
7823.8188 1.08315e-17
7825.0161 1.43763e-17
7826.2134 1.48921e-17
7827.4111 1.34209e-17
7828.6084 1.54595e-17
7829.8057 1.59385e-17
7831.0034 1.5013e-17
7832.2007 1.57629e-17
7833.3979 1.63787e-17
7834.5957 1.46655e-17
7835.793 1.60978e-17
7836.9907 1.60999e-17
7838.188 1.60695e-17
7839.3857 1.3171e-17
7840.583 1.47777e-17
7841.7808 1.56626e-17
7842.978 1.6086e-17
7844.1758 1.69137e-17
7845.3735 1.15552e-17
7846.5708 1.43651e-17
7847.7686 1.42231e-17
7848.9663 1.05548e-17
7850.1636 1.47345e-17
7851.3613 1.85373e-17
7852.5591 1.76518e-17
7853.7568 1.10168e-17
7854.9546 1.3311e-17
7856.1523 1.12664e-17
7857.3501 1.37446e-17
7858.5479 1.50065e-17
7859.7456 1.57939e-17
7860.9429 1.36775e-17
7862.1411 1.43509e-17
7863.3389 1.50673e-17
7864.5366 1.51651e-17
7865.7344 1.42923e-17
7866.9321 1.38874e-17
7868.1299 1.35647e-17
7869.3276 1.31419e-17
7870.5254 1.51778e-17
7871.7236 1.26043e-17
7872.9214 1.37445e-17
7874.1191 1.40924e-17
7875.3169 1.48133e-17
7876.5151 1.63008e-17
7877.7129 1.31958e-17
7878.9111 1.26126e-17
7880.1089 1.54603e-17
7881.3066 1.51311e-17
7882.5049 1.55413e-17
7883.7026 1.67889e-17
7884.9009 1.42618e-17
7886.0986 1.55789e-17
7887.2969 1.48393e-17
7888.4946 1.24393e-17
7889.6929 1.68533e-17
7890.8911 1.18798e-17
7892.0889 1.18249e-17
7893.2871 1.57853e-17
7894.4849 1.29667e-17
7895.6831 1.48539e-17
7896.8813 1.32946e-17
7898.0796 1.37751e-17
7899.2778 1.39062e-17
7900.4756 1.32824e-17
7901.6738 1.45543e-17
7902.8721 1.3938e-17
7904.0703 1.35206e-17
7905.2686 1.5954e-17
7906.4668 1.29525e-17
7907.665 1.43571e-17
7908.8633 1.55848e-17
7910.0615 1.64124e-17
7911.2598 1.80268e-17
7912.458 1.63436e-17
7913.6562 1.58525e-17
7914.8545 1.15132e-17
7916.0527 1.01808e-17
7917.251 1.31346e-17
7918.4492 1.24532e-17
7919.6475 1.49198e-17
7920.8462 1.57375e-17
7922.0444 1.2827e-17
7923.2427 1.25682e-17
7924.4409 1.4327e-17
7925.6396 1.49889e-17
7926.8379 1.23047e-17
7928.0366 1.2711e-17
7929.2349 1.50388e-17
7930.4331 1.23524e-17
7931.6318 1.41371e-17
7932.8301 1.77153e-17
7934.0288 1.4931e-17
7935.2271 1.45557e-17
7936.4253 1.37879e-17
7937.624 1.36084e-17
7938.8228 1.41746e-17
7940.021 1.43788e-17
7941.2197 1.45882e-17
7942.418 1.56296e-17
7943.6167 1.68516e-17
7944.8154 1.45294e-17
7946.0137 1.42846e-17
7947.2124 1.30332e-17
7948.4111 1.51231e-17
7949.6099 1.85361e-17
7950.8081 1.37577e-17
7952.0068 1.29771e-17
7953.2056 1.29628e-17
7954.4043 1.40546e-17
7955.603 1.35017e-17
7956.8018 1.42561e-17
7958 1.55665e-17
7959.1987 1.51061e-17
7960.3975 1.5607e-17
7961.5962 1.61853e-17
7962.7949 1.49534e-17
7963.9937 1.84694e-17
7965.1924 1.73968e-17
7966.3911 1.76112e-17
7967.5903 1.33824e-17
7968.7891 1.28912e-17
7969.9878 1.5771e-17
7971.1865 1.36476e-17
7972.3853 1.42032e-17
7973.584 1.49636e-17
7974.7827 1.24141e-17
7975.9819 1.33265e-17
7977.1807 1.57427e-17
7978.3794 1.5509e-17
7979.5786 1.4298e-17
7980.7773 1.64293e-17
7981.9761 1.53643e-17
7983.1753 1.36561e-17
7984.374 1.16171e-17
7985.5728 1.29449e-17
7986.772 1.3769e-17
7987.9707 1.33162e-17
7989.1699 1.36089e-17
7990.3687 1.75567e-17
7991.5679 1.49322e-17
7992.7666 2.26582e-17
7993.9658 1.55719e-17
7995.1646 1.95098e-17
7996.3638 1.29059e-17
7997.5625 1.13108e-17
7998.7617 1.40848e-17
7999.9609 1.4528e-17
8001.1597 1.33997e-17
8002.3589 1.34972e-17
8003.5581 1.49382e-17
8004.7573 1.50888e-17
8005.9561 1.32848e-17
8007.1553 1.62484e-17
8008.3545 1.49189e-17
8009.5537 1.62519e-17
8010.7524 1.37231e-17
8011.9517 1.72938e-17
8013.1509 1.62397e-17
8014.3501 1.33918e-17
8015.5493 1.35342e-17
8016.7485 1.45722e-17
8017.9478 1.36583e-17
8019.147 1.38598e-17
8020.3462 1.32925e-17
8021.5454 1.27452e-17
8022.7446 1.51334e-17
8023.9438 1.54773e-17
8025.1431 1.53355e-17
8026.3423 1.90356e-17
8027.5415 1.01863e-17
8028.7407 1.41907e-17
8029.9399 1.21515e-17
8031.1392 1.49065e-17
8032.3389 1.26955e-17
8033.5381 1.60586e-17
8034.7373 1.31084e-17
8035.9365 1.37242e-17
8037.1362 1.48791e-17
8038.3354 1.33978e-17
8039.5347 1.36929e-17
8040.7339 1.42166e-17
8041.9336 1.58948e-17
8043.1328 1.41295e-17
8044.332 1.37927e-17
8045.5317 1.48396e-17
8046.731 1.43945e-17
8047.9302 1.44754e-17
8049.1299 1.39079e-17
8050.3291 1.72977e-17
8051.5288 1.4694e-17
8052.728 1.52e-17
8053.9277 1.58055e-17
8055.1274 1.31113e-17
8056.3267 1.4705e-17
8057.5264 1.40839e-17
8058.7256 1.35692e-17
8059.9253 1.56138e-17
8061.1245 1.39912e-17
8062.3242 1.53068e-17
8063.5239 9.96112e-18
8064.7231 1.18616e-17
8065.9229 1.19872e-17
8067.1226 1.46919e-17
8068.3218 1.40449e-17
8069.5215 1.42698e-17
8070.7212 1.29018e-17
8071.9209 1.39773e-17
8073.1206 1.43513e-17
8074.3198 1.45376e-17
8075.5195 1.40109e-17
8076.7192 1.3502e-17
8077.9189 1.57498e-17
8079.1187 1.37872e-17
8080.3184 1.34539e-17
8081.5181 1.5239e-17
8082.7173 1.4262e-17
8083.917 1.31897e-17
8085.1167 1.27369e-17
8086.3164 1.40578e-17
8087.5161 1.27195e-17
8088.7158 1.34845e-17
8089.916 1.45244e-17
8091.1157 1.36073e-17
8092.3154 1.34313e-17
8093.5151 1.6079e-17
8094.7148 1.4122e-17
8095.9146 1.55908e-17
8097.1143 1.55682e-17
8098.314 1.38286e-17
8099.5137 1.57456e-17
8100.7134 1.54499e-17
8101.9136 1.56631e-17
8103.1133 1.31303e-17
8104.313 1.28704e-17
8105.5127 1.42328e-17
8106.7129 1.41172e-17
8107.9126 1.22183e-17
8109.1123 1.54581e-17
8110.3125 1.38653e-17
8111.5122 1.59128e-17
8112.7119 1.2349e-17
8113.9121 1.4552e-17
8115.1118 1.3211e-17
8116.3115 1.60095e-17
8117.5117 1.23674e-17
8118.7114 1.49044e-17
8119.9116 1.29006e-17
8121.1113 1.36391e-17
8122.3115 1.31149e-17
8123.5112 1.45016e-17
8124.7114 1.50817e-17
8125.9111 1.5203e-17
8127.1113 1.45294e-17
8128.311 1.50757e-17
8129.5112 1.39384e-17
8130.7109 1.37238e-17
8131.9111 1.34083e-17
8133.1113 1.34167e-17
8134.311 1.2203e-17
8135.5112 1.28324e-17
8136.7114 1.15238e-17
8137.9111 1.40667e-17
8139.1113 1.29494e-17
8140.3115 1.30866e-17
8141.5112 1.45009e-17
8142.7114 1.33157e-17
8143.9116 1.37648e-17
8145.1118 1.50937e-17
8146.3115 1.32078e-17
8147.5117 1.32335e-17
8148.7119 1.39929e-17
8149.9121 1.37592e-17
8151.1123 1.33607e-17
8152.312 1.41527e-17
8153.5122 1.40924e-17
8154.7124 1.42112e-17
8155.9126 1.35211e-17
8157.1128 1.28272e-17
8158.313 1.48091e-17
8159.5132 1.35327e-17
8160.7134 1.60268e-17
8161.9136 1.4399e-17
8163.1138 1.46258e-17
8164.314 1.22732e-17
8165.5142 1.35536e-17
8166.7144 1.38492e-17
8167.9146 1.32807e-17
8169.1147 1.47286e-17
8170.3149 1.30039e-17
8171.5151 1.49909e-17
8172.7153 1.33571e-17
8173.9155 1.27431e-17
8175.1157 1.13677e-17
8176.3159 1.2763e-17
8177.5161 1.34849e-17
8178.7168 1.35427e-17
8179.917 1.30139e-17
8181.1172 1.25926e-17
8182.3174 1.33344e-17
8183.5176 1.33287e-17
8184.7183 1.38702e-17
8185.9185 1.29715e-17
8187.1187 1.36862e-17
8188.3188 1.36257e-17
8189.5195 1.1704e-17
8190.7197 1.42136e-17
8191.9199 1.32576e-17
8193.1201 1.34956e-17
8194.3203 1.18468e-17
8195.5215 1.51243e-17
8196.7217 1.43722e-17
8197.9219 1.50347e-17
8199.1221 1.30736e-17
8200.3223 1.41602e-17
8201.5234 1.50417e-17
8202.7236 1.33468e-17
8203.9238 1.47505e-17
8205.124 1.32654e-17
8206.3242 1.41634e-17
8207.5254 1.38582e-17
8208.7256 1.3883e-17
8209.9258 1.35267e-17
8211.126 1.35129e-17
8212.3271 1.33783e-17
8213.5273 1.68155e-17
8214.7275 1.40488e-17
8215.9277 1.31676e-17
8217.1289 1.2391e-17
8218.3291 1.40253e-17
8219.5293 1.30021e-17
8220.7305 1.25284e-17
8221.9307 1.36837e-17
8223.1309 1.244e-17
8224.332 1.25302e-17
8225.5322 1.27598e-17
8226.7324 1.26084e-17
8227.9326 1.32834e-17
8229.1338 1.10825e-17
8230.334 1.26488e-17
8231.5352 1.27099e-17
8232.7354 1.29839e-17
8233.9355 1.25134e-17
8235.1367 1.35117e-17
8236.3369 1.3564e-17
8237.5371 1.42716e-17
8238.7383 1.40236e-17
8239.9385 1.40319e-17
8241.1396 1.42581e-17
8242.3398 1.44626e-17
8243.54 1.46369e-17
8244.7412 1.38643e-17
8245.9414 1.39991e-17
8247.1426 1.4328e-17
8248.3428 1.33208e-17
8249.543 1.36175e-17
8250.7441 1.36089e-17
8251.9443 1.35544e-17
8253.1455 1.53209e-17
8254.3457 1.50075e-17
8255.5469 1.3575e-17
8256.7471 1.29954e-17
8257.9482 1.39087e-17
8259.1484 1.29094e-17
8260.3496 1.28619e-17
8261.5498 1.19248e-17
8262.751 1.32214e-17
8263.9512 1.34156e-17
8265.1523 1.37283e-17
8266.3525 1.28787e-17
8267.5537 1.41036e-17
8268.7539 1.28094e-17
8269.9551 1.46416e-17
8271.1553 1.28897e-17
8272.3564 1.55768e-17
8273.5566 1.24362e-17
8274.7578 1.1039e-17
8275.958 1.37355e-17
8277.1592 1.2784e-17
8278.3594 1.3288e-17
8279.5605 1.23779e-17
8280.7607 1.34114e-17
8281.9619 1.0216e-17
8283.1631 1.70266e-17
8284.3633 1.3875e-17
8285.5645 1.19249e-17
8286.7646 8.10506e-18
8287.9658 1.27742e-17
8289.167 1.00981e-17
8290.3672 1.69229e-17
8291.5684 9.93334e-18
8292.7686 1.08438e-17
8293.9697 1.27306e-17
8295.1709 1.3019e-17
8296.3711 1.10109e-17
8297.5723 1.67393e-17
8298.7734 1.57121e-17
8299.9736 1.38459e-17
8301.1748 1.92922e-17
8302.375 1.24285e-17
8303.5762 1.11892e-17
8304.7773 1.40014e-17
8305.9775 1.25768e-17
8307.1787 1.24376e-17
8308.3799 1.35376e-17
8309.5801 1.29567e-17
8310.7812 1.4504e-17
8311.9824 7.51369e-18
8313.1826 1.32892e-17
8314.3838 1.41985e-17
8315.585 1.33258e-17
8316.7861 1.24587e-17
8317.9863 1.39568e-17
8319.1875 1.27113e-17
8320.3887 1.30342e-17
8321.5889 1.48265e-17
8322.79 1.18e-17
8323.9912 1.32631e-17
8325.1924 1.25804e-17
8326.3926 1.30485e-17
8327.5938 1.36589e-17
8328.7949 1.42802e-17
8329.9951 1.16908e-17
8331.1963 1.33929e-17
8332.3975 1.36207e-17
8333.5986 1.279e-17
8334.7988 1.20631e-17
8336 1.37945e-17
8337.2012 1.26512e-17
8338.4023 1.31407e-17
8339.6025 9.90632e-18
8340.8037 1.62526e-17
8342.0049 1.65366e-17
8343.2061 1.17023e-17
8344.4072 1.34007e-17
8345.6074 1.81478e-17
8346.8086 8.12961e-18
8348.0098 6.88533e-18
8349.2109 4.03816e-18
8350.4121 1.12349e-17
8351.6123 1.47128e-17
8352.8135 7.51726e-18
8354.0146 1.52673e-17
8355.2158 1.39807e-17
8356.417 1.23615e-17
8357.6172 1.16226e-17
8358.8184 1.20599e-17
8360.0195 1.18812e-17
8361.2207 1.1577e-17
8362.4219 1.37656e-17
8363.623 1.18067e-17
8364.8232 1.17497e-17
8366.0244 1.39591e-17
8367.2256 1.34105e-17
8368.4268 1.21111e-17
8369.6279 1.29381e-17
8370.8291 1.36153e-17
8372.0303 1.23366e-17
8373.2305 1.38103e-17
8374.4316 1.35218e-17
8375.6328 1.35418e-17
8376.834 1.31146e-17
8378.0352 1.36836e-17
8379.2363 1.09269e-17
8380.4375 1.53761e-17
8381.6387 1.3685e-17
8382.8389 1.42888e-17
8384.04 1.23305e-17
8385.2412 1.30309e-17
8386.4424 1.12148e-17
8387.6436 1.19627e-17
8388.8447 1.33226e-17
8390.0459 1.32718e-17
8391.2471 1.20222e-17
8392.4482 1.23668e-17
8393.6484 1.3351e-17
8394.8496 1.68032e-17
8396.0508 1.28604e-17
8397.252 1.15304e-17
8398.4531 1.564e-17
8399.6543 1.07916e-17
8400.8555 1.53025e-17
8402.0566 1.06605e-17
8403.2578 1.18299e-17
8404.459 9.45475e-18
8405.6602 1.25881e-17
8406.8613 1.25764e-17
8408.0615 1.2617e-17
8409.2627 1.36841e-17
8410.4639 1.42732e-17
8411.665 1.3659e-17
8412.8662 1.49382e-17
8414.0674 1.31297e-17
8415.2686 1.30421e-17
8416.4697 1.50518e-17
8417.6709 1.40704e-17
8418.8721 9.7908e-18
8420.0732 1.19812e-17
8421.2744 1.36379e-17
8422.4756 1.06554e-17
8423.6768 1.44807e-17
8424.8779 1.37878e-17
8426.0791 1.27807e-17
8427.2803 1.43547e-17
8428.4814 1.20856e-17
8429.6826 1.19593e-17
8430.8838 1.78787e-17
8432.085 1.93628e-17
8433.2861 9.12424e-18
8434.4873 9.29378e-18
8435.6885 9.51153e-18
8436.8896 1.43163e-17
8438.0908 1.18707e-17
8439.292 1.20251e-17
8440.4932 1.44571e-17
8441.6943 1.2044e-17
8442.8955 1.10762e-17
8444.0967 1.14593e-17
8445.2979 1.23896e-17
8446.499 1.26266e-17
8447.6992 1.25268e-17
8448.9014 1.38048e-17
8450.1025 1.34892e-17
8451.3027 1.34985e-17
8452.5049 1.17429e-17
8453.7061 1.14787e-17
8454.9072 1.21274e-17
8456.1084 1.32995e-17
8457.3096 1.23315e-17
8458.5107 1.45629e-17
8459.7119 1.52143e-17
8460.9131 1.64992e-17
8462.1143 1.54731e-17
8463.3154 1.74768e-17
8464.5166 1.58767e-17
8465.7178 1.5833e-17
8466.9189 8.27205e-18
8468.1201 9.61216e-18
8469.3213 9.85356e-18
8470.5225 1.18333e-17
8471.7236 1.30911e-17
8472.9248 1.25269e-17
8474.126 1.39696e-17
8475.3271 1.15321e-17
8476.5283 1.48702e-17
8477.7295 1.42074e-17
8478.9307 1.37185e-17
8480.1318 1.4027e-17
8481.333 1.40894e-17
8482.5342 1.27806e-17
8483.7354 1.13573e-17
8484.9365 1.34033e-17
8486.1377 1.45444e-17
8487.3389 1.39289e-17
8488.54 1.34911e-17
8489.7412 1.39325e-17
8490.9424 1.68247e-17
8492.1436 1.37085e-17
8493.3447 1.43173e-17
8494.5459 1.29264e-17
8495.7471 1.24989e-17
8496.9482 1.30368e-17
8498.1494 1.22987e-17
8499.3516 1.17357e-17
8500.5527 1.12487e-17
8501.7539 1.15647e-17
8502.9551 1.30844e-17
8504.1562 1.39406e-17
8505.3574 1.19021e-17
8506.5586 1.23734e-17
8507.7598 1.21676e-17
8508.9609 1.06471e-17
8510.1621 1.19976e-17
8511.3633 1.18205e-17
8512.5645 1.35003e-17
8513.7656 1.4419e-17
8514.9668 1.26682e-17
8516.168 1.41915e-17
8517.3691 1.26031e-17
8518.5703 1.35183e-17
8519.7715 1.32721e-17
8520.9727 1.35225e-17
8522.1738 1.36856e-17
8523.375 1.4019e-17
8524.5762 1.35817e-17
8525.7773 1.34217e-17
8526.9795 1.43322e-17
8528.1807 1.41395e-17
8529.3818 1.20124e-17
8530.583 1.50762e-17
8531.7842 1.20857e-17
8532.9854 1.21337e-17
8534.1865 1.42431e-17
8535.3877 1.31413e-17
8536.5889 1.31769e-17
8537.79 1.45229e-17
8538.9912 1.50768e-17
8540.1924 1.4512e-17
8541.3936 1.25631e-17
8542.5947 1.2732e-17
8543.7959 1.28643e-17
8544.9971 1.37671e-17
8546.1982 1.1815e-17
8547.3994 1.77425e-17
8548.6006 9.76003e-18
8549.8018 1.3174e-17
8551.0029 1.27915e-17
8552.2051 1.10404e-17
8553.4062 1.231e-17
8554.6074 1.33914e-17
8555.8086 1.29638e-17
8557.0098 1.26613e-17
8558.2109 1.25532e-17
8559.4121 1.35098e-17
8560.6133 1.25121e-17
8561.8145 1.29011e-17
8563.0156 1.29338e-17
8564.2168 1.3516e-17
8565.418 1.24938e-17
8566.6191 1.41282e-17
8567.8203 1.2711e-17
8569.0215 1.42043e-17
8570.2227 1.29793e-17
8571.4238 1.29014e-17
8572.625 1.34617e-17
8573.8262 1.10551e-17
8575.0273 1.03746e-17
8576.2285 1.19193e-17
8577.4297 1.19713e-17
8578.6309 1.22551e-17
8579.832 1.23325e-17
8581.0332 1.31725e-17
8582.2344 1.29503e-17
8583.4355 1.32634e-17
8584.6367 1.26516e-17
8585.8379 1.24394e-17
8587.0391 1.2777e-17
8588.2402 1.26044e-17
8589.4414 1.22998e-17
8590.6426 1.35945e-17
8591.8438 1.33467e-17
8593.0449 1.32086e-17
8594.2461 1.35741e-17
8595.4473 1.50656e-17
8596.6484 1.22238e-17
8597.8496 1.26825e-17
8599.0508 1.36287e-17
8600.252 1.32387e-17
8601.4531 1.39034e-17
8602.6543 1.10611e-17
8603.8555 1.25689e-17
8605.0566 1.4329e-17
8606.2578 1.34997e-17
8607.459 1.19528e-17
8608.6602 1.29164e-17
8609.8613 1.25269e-17
8611.0625 9.77956e-18
8612.2637 1.01067e-17
8613.4648 9.74794e-18
8614.666 8.68174e-18
8615.8672 1.17797e-17
8617.0684 1.24739e-17
8618.2695 1.61997e-17
8619.4707 1.18563e-17
8620.6719 1.21341e-17
8621.873 9.88971e-18
8623.0742 1.37438e-17
8624.2754 1.20114e-17
8625.4766 1.10873e-17
8626.6777 1.51266e-17
8627.8789 1.1913e-17
8629.0801 1.61871e-17
8630.2812 1.36366e-17
8631.4824 9.34883e-18
8632.6836 1.44448e-17
8633.8848 8.00576e-18
8635.0859 1.17388e-17
8636.2871 1.13648e-17
8637.4883 1.29778e-17
8638.6895 1.29214e-17
8639.8906 1.09118e-17
8641.0908 1.21765e-17
8642.292 1.07443e-17
8643.4932 1.21128e-17
8644.6943 1.38822e-17
8645.8955 1.39434e-17
8647.0967 1.36418e-17
8648.2979 1.65251e-17
8649.499 1.46175e-17
8650.7002 1.33031e-17
8651.9014 9.27035e-18
8653.1025 1.37924e-17
8654.3037 1.4067e-17
8655.5049 1.48752e-17
8656.7061 1.38201e-17
8657.9062 9.20253e-18
8659.1074 1.06291e-17
8660.3086 9.86261e-18
8661.5098 1.28759e-17
8662.7109 1.28078e-17
8663.9121 1.13827e-17
8665.1133 8.67976e-18
8666.3145 9.68177e-18
8667.5156 1.61019e-17
8668.7158 1.28639e-17
8669.917 1.13818e-17
8671.1182 1.01319e-17
8672.3193 8.02036e-18
8673.5205 1.16412e-17
8674.7217 1.0383e-17
8675.9229 1.24741e-17
8677.124 1.2601e-17
8678.3242 1.08135e-17
8679.5254 1.32757e-17
8680.7266 1.04758e-17
8681.9277 1.1974e-17
8683.1289 1.03828e-17
8684.3301 1.28625e-17
8685.5312 1.2301e-17
8686.7314 1.32513e-17
8687.9326 9.87328e-18
8689.1338 1.13039e-17
8690.335 1.35149e-17
8691.5361 1.19097e-17
8692.7363 1.25671e-17
8693.9375 1.24057e-17
8695.1387 1.40443e-17
8696.3398 1.33637e-17
8697.541 1.30094e-17
8698.7422 1.41916e-17
8699.9424 1.48849e-17
8701.1436 1.18267e-17
8702.3447 1.36998e-17
8703.5459 1.19611e-17
8704.7471 1.25258e-17
8705.9473 1.32245e-17
8707.1484 1.22437e-17
8708.3496 1.35419e-17
8709.5508 1.14441e-17
8710.751 1.34407e-17
8711.9521 1.26086e-17
8713.1533 1.44152e-17
8714.3545 1.32999e-17
8715.5557 1.24773e-17
8716.7559 1.12718e-17
8717.957 1.28881e-17
8719.1582 1.19402e-17
8720.3594 1.25049e-17
8721.5596 1.13395e-17
8722.7607 1.10724e-17
8723.9619 1.27979e-17
8725.1631 1.28462e-17
8726.3633 1.21011e-17
8727.5645 1.31433e-17
8728.7656 1.23573e-17
8729.9658 1.11075e-17
8731.167 1.22841e-17
8732.3682 1.06828e-17
8733.5684 1.18214e-17
8734.7695 1.35691e-17
8735.9707 1.36718e-17
8737.1719 1.42709e-17
8738.3721 1.07783e-17
8739.5732 1.16039e-17
8740.7744 1.23203e-17
8741.9746 1.40968e-17
8743.1758 1.16732e-17
8744.377 1.00542e-17
8745.5771 1.11588e-17
8746.7783 1.36069e-17
8747.9795 1.05306e-17
8749.1797 1.06284e-17
8750.3809 1.16263e-17
8751.582 9.98088e-18
8752.7822 1.02827e-17
8753.9834 1.07231e-17
8755.1836 1.03259e-17
8756.3848 1.1381e-17
8757.5859 1.76165e-17
8758.7861 1.49186e-17
8759.9873 1.09449e-17
8761.1885 1.42561e-17
8762.3887 1.93545e-17
8763.5898 1.59011e-17
8764.79 1.513e-17
8765.9912 1.19937e-17
8767.1924 1.40811e-17
8768.3926 1.10901e-17
8769.5938 1.05886e-17
8770.7939 8.76215e-18
8771.9951 6.29741e-18
8773.1953 9.42861e-18
8774.3965 1.09666e-17
8775.5967 1.0755e-17
8776.7979 1.64897e-17
8777.999 1.37574e-17
8779.1992 1.00337e-17
8780.4004 1.6091e-17
8781.6006 1.26499e-17
8782.8018 8.84381e-18
8784.002 1.08127e-17
8785.2031 1.10407e-17
8786.4033 1.14473e-17
8787.6045 1.28409e-17
8788.8047 1.22274e-17
8790.0059 9.37674e-18
8791.2061 1.04698e-17
8792.4072 1.16668e-17
8793.6074 6.74136e-18
8794.8086 9.13751e-18
8796.0088 7.64334e-18
8797.21 9.26261e-18
8798.4102 9.48867e-18
8799.6104 1.19382e-17
8800.8115 1.03241e-17
8802.0117 1.0981e-17
8803.2129 1.1238e-17
8804.4131 1.33218e-17
8805.6143 1.12609e-17
8806.8145 1.37677e-17
8808.0146 1.45919e-17
8809.2158 1.25718e-17
8810.416 1.16161e-17
8811.6172 1.10412e-17
8812.8174 1.18021e-17
8814.0186 1.23332e-17
8815.2188 1.25113e-17
8816.4189 1.22721e-17
8817.6201 1.3521e-17
8818.8203 1.21246e-17
8820.0205 1.19955e-17
8821.2217 9.57575e-18
8822.4219 1.08965e-17
8823.6221 1.33113e-17
8824.8232 2.01381e-17
8826.0234 2.03711e-17
8827.2236 1.05745e-17
8828.4248 1.15813e-17
8829.625 6.49707e-18
8830.8252 8.74586e-18
8832.0264 9.13741e-18
8833.2266 1.15473e-17
8834.4268 1.4492e-17
8835.6279 1.21656e-17
8836.8281 1.21991e-17
8838.0283 1.18711e-17
8839.2285 1.34386e-17
8840.4297 1.18039e-17
8841.6299 1.33447e-17
8842.8301 1.26079e-17
8844.0303 1.10102e-17
8845.2314 1.31718e-17
8846.4316 1.27515e-17
8847.6318 1.39439e-17
8848.832 1.24925e-17
8850.0332 1.10463e-17
8851.2334 1.2585e-17
8852.4336 1.08906e-17
8853.6338 8.98004e-18
8854.834 1.06401e-17
8856.0352 1.05451e-17
8857.2354 1.12772e-17
8858.4355 1.23806e-17
8859.6357 1.18238e-17
8860.8359 1.28955e-17
8862.0361 9.71299e-18
8863.2373 9.16817e-18
8864.4375 1.65443e-17
8865.6377 1.38815e-17
8866.8379 1.32459e-17
8868.0381 1.05379e-17
8869.2383 1.19369e-17
8870.4385 8.9626e-18
8871.6387 5.84261e-18
8872.8398 8.95593e-18
8874.04 1.11279e-17
8875.2402 1.29012e-17
8876.4404 1.24674e-17
8877.6406 1.32087e-17
8878.8408 1.23759e-17
8880.041 1.16766e-17
8881.2412 1.23253e-17
8882.4414 1.21456e-17
8883.6416 1.86338e-17
8884.8418 1.63675e-17
8886.042 1.05735e-17
8887.2422 1.93911e-17
8888.4424 1.12042e-17
8889.6426 3.38312e-18
8890.8428 6.31482e-18
8892.043 9.90304e-18
8893.2432 1.24144e-17
8894.4434 1.32355e-17
8895.6436 1.17577e-17
8896.8438 1.3857e-17
8898.0439 1.32016e-17
8899.2441 7.578e-18
8900.4443 1.20567e-17
8901.6445 1.4274e-17
8902.8447 1.13388e-17
8904.0449 1.45775e-17
8905.2451 1.38947e-17
8906.4453 1.37676e-17
8907.6445 1.15809e-17
8908.8447 1.23327e-17
8910.0449 1.34532e-17
8911.2451 1.31455e-17
8912.4453 1.10697e-17
8913.6455 1.24074e-17
8914.8457 1.12312e-17
8916.0459 7.4513e-18
8917.2451 1.34247e-17
8918.4453 9.60745e-18
8919.6455 7.8424e-18
8920.8457 1.29319e-17
8922.0459 9.18132e-18
8923.2461 4.35723e-18
8924.4453 5.58415e-18
8925.6455 8.37149e-18
8926.8457 1.07577e-17
8928.0459 9.62548e-18
8929.2451 1.30957e-17
8930.4453 1.06719e-17
8931.6455 1.19738e-17
8932.8457 1.25215e-17
8934.0449 1.00718e-17
8935.2451 1.36982e-17
8936.4453 1.22181e-17
8937.6455 1.13754e-17
8938.8447 1.11419e-17
8940.0449 1.0045e-17
8941.2451 1.2225e-17
8942.4443 1.33267e-17
8943.6445 1.34688e-17
8944.8447 1.1973e-17
8946.0439 1.43452e-17
8947.2441 9.74587e-18
8948.4443 9.83496e-18
8949.6436 1.04051e-17
8950.8438 1.38304e-17
8952.0439 1.12218e-17
8953.2432 9.19128e-18
8954.4434 1.26445e-17
8955.6436 1.5799e-17
8956.8428 1.39041e-17
8958.043 1.69645e-17
8959.2422 1.04525e-17
8960.4424 1.31679e-17
8961.6416 1.20162e-17
8962.8418 9.26289e-18
8964.041 9.56121e-18
8965.2412 1.33606e-17
8966.4414 1.21855e-17
8967.6406 1.1558e-17
8968.8408 1.21362e-17
8970.04 1.23664e-17
8971.2402 1.27397e-17
8972.4395 1.22674e-17
8973.6396 1.3229e-17
8974.8389 1.17506e-17
8976.0391 1.32075e-17
8977.2383 1.24301e-17
8978.4385 1.13058e-17
8979.6377 1.07883e-17
8980.8369 1.42021e-17
8982.0371 1.30246e-17
8983.2363 1.16814e-17
8984.4365 1.14307e-17
8985.6357 1.12507e-17
8986.835 9.22879e-18
8988.0352 7.40873e-18
8989.2344 1.29576e-17
8990.4346 1.2864e-17
8991.6338 1.09644e-17
8992.833 1.16245e-17
8994.0332 1.05401e-17
8995.2324 1.16183e-17
8996.4316 1.10036e-17
8997.6318 1.22259e-17
8998.8311 1.58005e-17
9000.0303 1.09256e-17
9001.2295 6.66611e-18
9002.4297 1.33958e-17
9003.6289 1.12718e-17
9004.8281 9.0805e-18
9006.0273 7.44887e-18
9007.2275 1.12675e-17
9008.4268 1.09851e-17
9009.626 1.00947e-17
9010.8252 1.1205e-17
9012.0254 1.2281e-17
9013.2246 1.08874e-17
9014.4238 1.15634e-17
9015.623 1.06294e-17
9016.8223 1.05037e-17
9018.0225 1.14798e-17
9019.2217 1.1342e-17
9020.4209 1.18865e-17
9021.6201 1.39639e-17
9022.8193 1.05559e-17
9024.0186 1.15808e-17
9025.2178 1.00474e-17
9026.417 1.19092e-17
9027.6172 1.10995e-17
9028.8164 1.15681e-17
9030.0156 9.89862e-18
9031.2148 1.29016e-17
9032.4141 1.20403e-17
9033.6133 1.34678e-17
9034.8125 1.26358e-17
9036.0117 1.43072e-17
9037.2109 9.81664e-18
9038.4102 1.40732e-17
9039.6094 8.9506e-18
9040.8086 1.04961e-17
9042.0078 1.11752e-17
9043.207 1.19535e-17
9044.4062 1.15832e-17
9045.6055 1.33984e-17
9046.8047 1.24619e-17
9048.0039 1.29666e-17
9049.2031 1.45464e-17
9050.4023 1.20801e-17
9051.6006 1.19324e-17
9052.7998 1.02598e-17
9053.999 9.92428e-18
9055.1982 1.15084e-17
9056.3975 1.17068e-17
9057.5967 1.2974e-17
9058.7959 1.19681e-17
9059.9941 1.05067e-17
9061.1934 1.2358e-17
9062.3926 1.19482e-17
9063.5918 1.25389e-17
9064.791 1.18758e-17
9065.9902 1.29868e-17
9067.1885 1.09641e-17
9068.3877 1.19434e-17
9069.5869 1.10254e-17
9070.7861 1.08557e-17
9071.9844 1.23023e-17
9073.1836 1.17581e-17
9074.3828 1.26755e-17
9075.582 1.21792e-17
9076.7803 1.24149e-17
9077.9795 1.15323e-17
9079.1787 1.21804e-17
9080.377 1.21043e-17
9081.5762 1.12775e-17
9082.7754 1.20479e-17
9083.9736 1.17585e-17
9085.1729 1.17579e-17
9086.3721 1.31846e-17
9087.5703 1.3044e-17
9088.7695 1.22772e-17
9089.9678 1.12771e-17
9091.167 1.28634e-17
9092.3652 1.24539e-17
9093.5645 1.22931e-17
9094.7637 1.22329e-17
9095.9619 1.08967e-17
9097.1611 1.06917e-17
9098.3594 1.10286e-17
9099.5586 1.17194e-17
9100.7568 1.29739e-17
9101.9561 1.17231e-17
9103.1543 1.00329e-17
9104.3535 1.28547e-17
9105.5518 1.22293e-17
9106.751 1.02128e-17
9107.9492 1.18038e-17
9109.1475 1.12274e-17
9110.3467 1.14716e-17
9111.5449 1.20687e-17
9112.7441 1.15318e-17
9113.9424 1.24102e-17
9115.1406 1.00996e-17
9116.3398 1.20792e-17
9117.5381 1.08843e-17
9118.7363 1.01455e-17
9119.9355 1.06491e-17
9121.1338 1.24095e-17
9122.332 1.0747e-17
9123.5312 1.14115e-17
9124.7295 9.95139e-18
9125.9277 1.14512e-17
9127.127 1.08817e-17
9128.3252 1.14663e-17
9129.5234 1.20983e-17
9130.7217 1.01609e-17
9131.9209 1.16368e-17
9133.1191 1.18087e-17
9134.3174 1.17034e-17
9135.5156 1.05168e-17
9136.7139 1.04972e-17
9137.9131 1.02165e-17
9139.1113 1.14163e-17
9140.3096 1.17829e-17
9141.5078 1.08936e-17
9142.7061 1.11533e-17
9143.9043 1.23632e-17
9145.1025 1.12834e-17
9146.3018 1.1369e-17
9147.5 1.22127e-17
9148.6982 1.00787e-17
9149.8965 9.22387e-18
9151.0947 9.58932e-18
9152.293 1.27605e-17
9153.4912 1.09533e-17
9154.6895 1.25396e-17
9155.8877 1.17235e-17
9157.0859 1.04336e-17
9158.2842 1.13413e-17
9159.4824 1.22363e-17
9160.6807 1.28979e-17
9161.8789 1.28609e-17
9163.0771 1.39887e-17
9164.2754 1.1203e-17
9165.4736 1.12691e-17
9166.6719 1.05873e-17
9167.8691 1.18941e-17
9169.0674 1.30997e-17
9170.2656 1.14182e-17
9171.4639 1.00667e-17
9172.6621 1.08139e-17
9173.8604 1.17878e-17
9175.0576 1.28977e-17
9176.2559 1.05379e-17
9177.4541 1.23129e-17
9178.6523 1.12955e-17
9179.8506 1.21935e-17
9181.0479 1.02891e-17
9182.2461 1.16652e-17
9183.4443 1.19884e-17
9184.6426 1.22476e-17
9185.8398 1.2575e-17
9187.0381 1.17873e-17
9188.2363 1.18653e-17
9189.4346 1.10784e-17
9190.6318 1.11532e-17
9191.8301 1.19528e-17
9193.0283 1.11605e-17
9194.2256 1.13313e-17
9195.4238 1.05876e-17
9196.6221 1.14102e-17
9197.8193 1.18311e-17
9199.0176 1.08902e-17
9200.2148 1.21196e-17
9201.4131 1.25312e-17
9202.6104 1.18043e-17
9203.8086 1.20444e-17
9205.0068 1.12532e-17
9206.2041 1.14022e-17
9207.4023 1.10097e-17
9208.5996 1.23724e-17
9209.7979 1.19222e-17
9210.9951 1.05193e-17
9212.1934 1.11948e-17
9213.3906 1.26404e-17
9214.5879 1.08242e-17
9215.7861 1.07411e-17
9216.9834 1.18313e-17
9218.1816 1.17938e-17
9219.3789 1.17702e-17
9220.5762 1.32696e-17
9221.7744 1.1299e-17
9222.9717 1.29022e-17
9224.1699 1.24825e-17
9225.3672 1.1307e-17
9226.5645 1.37323e-17
9227.7617 1.03106e-17
9228.96 1.11756e-17
9230.1572 1.10524e-17
9231.3545 1.1781e-17
9232.5527 9.98001e-18
9233.75 1.09064e-17
9234.9473 1.23767e-17
9236.1445 1.20544e-17
9237.3428 1.17974e-17
9238.54 1.03609e-17
9239.7373 1.12461e-17
9240.9346 1.05111e-17
9242.1318 1.1988e-17
9243.3291 1.09994e-17
9244.5273 1.18454e-17
9245.7246 9.83253e-18
9246.9219 1.12186e-17
9248.1191 1.1808e-17
9249.3164 1.08792e-17
9250.5137 1.09048e-17
9251.7109 9.92858e-18
9252.9082 1.09234e-17
9254.1055 1.14323e-17
9255.3027 1.13799e-17
9256.5 1.09295e-17
9257.6973 1.14902e-17
9258.8945 1.22049e-17
9260.0918 1.09784e-17
9261.2891 1.37112e-17
9262.4863 1.19156e-17
9263.6836 9.31068e-18
9264.8809 1.111e-17
9266.0781 9.69871e-18
9267.2754 1.20629e-17
9268.4727 1.00424e-17
9269.6699 1.08427e-17
9270.8672 1.11266e-17
9272.0635 1.15437e-17
9273.2607 1.10118e-17
9274.458 1.05486e-17
9275.6553 1.03423e-17
9276.8525 1.10804e-17
9278.0488 1.2373e-17
9279.2461 1.04331e-17
9280.4434 9.77793e-18
9281.6406 1.0069e-17
9282.8369 1.0147e-17
9284.0342 8.90746e-18
9285.2314 9.12766e-18
9286.4287 8.72999e-18
9287.625 1.09956e-17
9288.8223 1.09278e-17
9290.0195 1.19907e-17
9291.2158 1.00036e-17
9292.4131 1.03239e-17
9293.6104 9.32163e-18
9294.8066 1.11821e-17
9296.0039 1.06541e-17
9297.2002 9.88693e-18
9298.3975 1.10962e-17
9299.5938 1.13195e-17
9300.791 1.02468e-17
9301.9883 1.04616e-17
9303.1846 1.26265e-17
9304.3809 1.67403e-17
9305.5781 1.62987e-17
9306.7744 8.71124e-18
9307.9717 5.37257e-18
9309.168 6.5855e-18
9310.3652 1.104e-17
9311.5615 7.33882e-18
9312.7588 9.58266e-18
9313.9551 3.63209e-18
9315.1514 1.86256e-17
9316.3486 1.17744e-17
9317.5449 2.79959e-18
9318.7422 6.50953e-18
9319.9385 9.16042e-18
9321.1348 2.15087e-17
9322.3311 1.34387e-17
9323.5283 8.00366e-18
9324.7246 9.59868e-18
9325.9209 9.1611e-18
9327.1182 7.24456e-18
9328.3145 6.07249e-18
9329.5107 1.21089e-17
9330.707 9.516e-18
9331.9033 9.23129e-18
9333.1006 1.09571e-17
9334.2969 1.42453e-17
9335.4932 1.25929e-17
9336.6895 1.20756e-17
9337.8857 1.2893e-17
9339.082 1.56506e-17
9340.2783 1.45105e-17
9341.4746 7.65069e-18
9342.6719 1.06823e-17
9343.8682 1.12089e-17
9345.0645 9.99642e-18
9346.2607 8.71133e-18
9347.457 9.30099e-18
9348.6533 1.04345e-17
9349.8496 8.77411e-18
9351.0459 1.0548e-17
9352.2422 1.12102e-17
9353.4385 1.15311e-17
9354.6338 1.07797e-17
9355.8301 1.07908e-17
9357.0264 6.81828e-18
9358.2227 1.03174e-17
9359.4189 1.20811e-17
9360.6152 1.05212e-17
9361.8115 9.67724e-18
9363.0078 1.28076e-17
9364.2031 1.03576e-17
9365.3994 8.7141e-18
9366.5957 1.12543e-17
9367.792 1.00061e-17
9368.9883 1.23305e-17
9370.1836 1.05239e-17
9371.3799 3.7229e-18
9372.5762 1.25629e-17
9373.7725 2.44047e-17
9374.9678 1.33889e-17
9376.1641 1.80665e-17
9377.3604 1.38784e-17
9378.5557 1.6622e-17
9379.752 -7.89613e-18
9380.9482 9.48911e-20
9382.1436 8.07135e-18
9383.3398 1.10147e-17
9384.5352 1.20411e-17
9385.7314 1.14028e-17
9386.9268 1.20838e-17
9388.123 1.06681e-17
9389.3193 9.67102e-18
9390.5146 8.38793e-18
9391.7109 1.04387e-17
9392.9062 1.0548e-17
9394.1016 9.96727e-18
9395.2979 1.15569e-17
9396.4932 1.1854e-17
9397.6895 9.75984e-18
9398.8848 1.28345e-17
9400.0811 1.37474e-17
9401.2764 9.16107e-18
9402.4717 1.27006e-17
9403.668 9.82573e-18
9404.8633 1.35844e-17
9406.0586 1.14042e-17
9407.2549 9.80201e-18
9408.4502 1.26403e-17
9409.6455 1.06641e-17
9410.8418 8.09762e-18
9412.0371 9.99872e-18
9413.2324 1.00611e-17
9414.4277 1.15103e-17
9415.624 6.89098e-18
9416.8193 1.12898e-17
9418.0146 1.32438e-17
9419.21 1.10964e-17
9420.4053 1.30616e-17
9421.6006 1.22157e-17
9422.7969 8.88903e-18
9423.9922 3.67632e-18
9425.1875 9.78929e-18
9426.3828 8.503e-18
9427.5781 7.95707e-18
9428.7734 1.06678e-17
9429.9688 1.09423e-17
9431.1641 9.91726e-18
9432.3594 8.77902e-18
9433.5547 9.66195e-18
9434.75 9.36701e-18
9435.9453 1.30418e-17
9437.1406 2.21842e-17
9438.3359 2.4194e-17
9439.5312 2.39538e-17
9440.7266 3.03821e-17
9441.9219 1.74069e-17
9443.1162 1.85081e-18
9444.3115 -3.24227e-18
9445.5068 8.22633e-18
9446.7021 1.00253e-17
9447.8975 1.03896e-17
9449.0928 9.96085e-18
9450.2871 8.34723e-18
9451.4824 9.55056e-18
9452.6777 9.72578e-18
9453.873 1.04902e-17
9455.0674 1.19344e-17
9456.2627 1.79613e-17
9457.458 1.81593e-17
9458.6523 8.42386e-18
9459.8477 8.36039e-18
9461.043 1.13476e-17
9462.2373 1.0219e-17
9463.4326 4.36163e-18
9464.6279 6.87061e-18
9465.8223 1.04932e-17
9467.0176 1.23859e-17
9468.2119 9.58796e-18
9469.4072 1.11349e-17
9470.6016 9.43831e-18
9471.7969 6.80235e-18
9472.9922 1.7182e-17
9474.1865 9.83245e-18
9475.3809 2.36557e-17
9476.5762 1.24207e-17
9477.7705 1.45387e-17
9478.9658 1.10196e-17
9480.1602 -9.65857e-18
9481.3555 -1.76772e-18
9482.5498 6.52488e-18
9483.7441 8.85354e-18
9484.9395 8.41567e-18
9486.1338 9.30565e-18
9487.3281 8.89274e-18
9488.5234 9.14636e-18
9489.7178 7.50617e-18
9490.9121 9.22544e-18
9492.1064 9.02811e-18
9493.3018 8.8483e-18
9494.4961 8.9347e-18
9495.6904 1.00118e-17
9496.8848 9.01889e-18
9498.0801 6.14416e-18
9499.2744 1.11835e-17
9500.4688 1.21631e-17
9501.6631 1.66988e-17
9502.8574 1.25367e-17
9504.0518 1.30757e-17
9505.2461 2.92588e-18
9506.4404 4.69885e-18
9507.6357 6.93306e-18
9508.8301 9.63548e-18
9510.0244 8.0216e-18
9511.2188 1.05782e-17
9512.4131 6.88615e-18
9513.6074 9.2769e-18
9514.8018 7.02058e-18
9515.9951 9.48284e-18
9517.1895 1.89753e-17
9518.3838 1.44006e-17
9519.5781 1.27451e-17
9520.7725 1.11337e-17
9521.9668 3.4116e-18
9523.1611 -3.45379e-18
9524.3555 5.23961e-18
9525.5498 9.08491e-18
9526.7432 1.04871e-17
9527.9375 1.02853e-17
9529.1318 8.6496e-18
9530.3262 1.02622e-17
9531.5195 1.06186e-17
9532.7139 8.01694e-18
9533.9082 1.00025e-17
9535.1025 8.78226e-18
9538.6846 9.40143e-18
9539.8779 1.07738e-17
9541.0723 1.06555e-17
9542.2656 1.037e-17
9543.46 1.07155e-17
9544.6543 9.64876e-18
9545.8477 9.33418e-18
9547.042 9.47514e-18
9548.2354 8.44182e-18
9549.4297 1.3106e-17
9550.623 1.54965e-17
9551.8174 1.18386e-17
9553.0107 6.13818e-18
9554.2051 1.23442e-17
9555.3984 8.80189e-18
9556.5928 4.2807e-18
9557.7861 6.60998e-18
9558.9795 9.45164e-18
9560.1738 1.04864e-17
9561.3672 7.59307e-18
9562.5605 5.11436e-18
9563.7549 8.25408e-18
9564.9482 2.01744e-17
9566.1416 1.4921e-17
9567.3359 8.67196e-18
9568.5293 1.69328e-17
9569.7227 1.15228e-17
9570.916 5.61502e-18
9572.1104 6.10399e-18
9573.3037 8.75336e-18
9574.4971 1.01853e-17
9575.6904 1.10141e-17
9576.8838 9.65586e-18
9578.0771 1.16042e-17
9579.2715 9.36149e-18
9580.4648 9.61198e-18
9581.6582 1.16193e-17
9582.8516 9.89516e-18
9584.0449 1.12861e-17
9585.2383 8.93714e-18
9586.4316 1.10977e-17
9587.625 9.54216e-18
9588.8184 9.13666e-18
9590.0117 9.85258e-18
9591.2051 8.84501e-18
9592.3984 9.08035e-18
9593.5918 9.44671e-18
9594.7852 9.84001e-18
9595.9785 1.03958e-17
9597.1709 1.02314e-17
9598.3643 1.06597e-17
9599.5576 1.02269e-17
9600.751 1.17323e-17
9601.9443 9.91559e-18
9603.1377 1.0542e-17
9604.3301 8.56042e-18
9605.5234 1.03063e-17
9606.7168 1.11748e-17
9607.9102 1.07531e-17
9609.1025 1.39635e-17
9610.2959 1.29512e-17
9611.4893 8.3534e-18
9612.6816 1.01353e-17
9613.875 8.72457e-18
9615.0684 9.88098e-18
9616.2607 1.03713e-17
9617.4541 1.09781e-17
9618.6465 1.23516e-17
9619.8398 1.21557e-17
9621.0332 1.38965e-17
9622.2256 1.592e-17
9623.4189 7.34255e-18
9624.6113 5.31055e-18
9625.8047 9.0852e-18
9626.9971 9.13704e-18
9628.1904 9.95699e-18
9629.3828 9.3276e-18
9630.5752 1.03425e-17
9631.7686 1.1372e-17
9632.9609 1.11782e-17
9634.1543 9.43467e-18
9635.3467 7.51734e-18
9636.5391 9.39138e-18
9637.7324 9.75176e-18
9638.9248 1.06011e-17
9640.1172 1.12898e-17
9641.3096 9.85414e-18
9642.5029 1.08903e-17
9643.6953 1.00468e-17
9644.8877 9.48425e-18
9646.0801 1.05566e-17
9647.2734 9.93575e-18
9648.4658 1.03641e-17
9649.6582 9.88999e-18
9650.8506 1.00982e-17
9652.043 1.18347e-17
9653.2354 9.94094e-18
9654.4277 1.07597e-17
9655.6201 9.5516e-18
9656.8135 9.35576e-18
9658.0059 9.02774e-18
9659.1982 9.87688e-18
9660.3906 7.78809e-18
9661.583 1.03168e-17
9662.7754 1.03898e-17
9663.9678 7.12624e-18
9665.1602 1.00538e-17
9666.3516 1.08347e-17
9667.5439 1.15687e-17
9668.7363 1.19226e-17
9669.9287 1.06163e-17
9671.1211 1.03791e-17
9672.3135 8.22016e-18
9673.5059 7.34417e-18
9674.6973 8.24133e-18
9675.8896 7.58631e-18
9677.082 9.40673e-18
9678.2744 1.13106e-17
9679.4668 8.25857e-18
9680.6582 9.99633e-18
9681.8506 1.15944e-17
9683.043 8.16477e-18
9684.2344 5.4415e-18
9685.4268 8.06955e-18
9686.6191 9.90958e-18
9687.8105 1.19188e-17
9689.0029 9.36654e-18
9690.1943 1.0317e-17
9691.3867 9.54135e-18
9692.5791 1.08903e-17
9693.7705 1.11482e-17
9694.9629 9.07721e-18
9696.1543 1.104e-17
9697.3467 1.11346e-17
9698.5381 1.26787e-17
9699.7305 1.10849e-17
9700.9219 1.58971e-17
9702.1143 1.29576e-17
9703.3057 8.62493e-18
9704.4971 7.48207e-18
9705.6895 8.72817e-18
9706.8809 8.7593e-18
9708.0723 9.38464e-18
9709.2646 1.30999e-17
9710.4561 7.35453e-18
9711.6475 8.50227e-18
9712.8398 1.12071e-17
9714.0312 7.79996e-18
9715.2227 5.3496e-18
9716.4141 7.55239e-18
9717.6064 1.40842e-17
9718.7979 1.03633e-17
9719.9893 1.70322e-17
9721.1807 9.27237e-18
9722.3721 8.9427e-18
9723.5635 2.54154e-18
9724.7559 3.73036e-18
9725.9473 1.13882e-17
9727.1387 9.62654e-18
9728.3301 8.6845e-18
9729.5215 1.0428e-17
9730.7129 1.01131e-17
9731.9043 1.06577e-17
9733.0957 1.05854e-17
9734.2871 9.86635e-18
9735.4785 6.42686e-18
9736.6699 1.17311e-17
9737.8613 6.26684e-18
9739.0518 1.10302e-17
9740.2432 1.02714e-17
9741.4346 8.77615e-18
9742.626 1.08532e-17
9743.8174 7.7809e-18
9745.0088 9.98655e-18
9746.2002 1.21728e-17
9747.3906 8.18431e-18
9748.582 1.0034e-17
9749.7734 7.45536e-18
9750.9648 8.20874e-18
9752.1553 8.60945e-18
9753.3467 9.02429e-18
9754.5381 1.06283e-17
9755.7285 1.00836e-17
9756.9199 1.0083e-17
9758.1113 9.8566e-18
9759.3018 9.96969e-18
9760.4932 9.6976e-18
9761.6846 1.02713e-17
9762.875 1.07095e-17
9764.0664 8.26184e-18
9765.2568 1.03556e-17
9766.4482 9.24323e-18
9767.6387 1.07498e-17
9768.8301 1.1386e-17
9770.0205 1.02967e-17
9771.2119 1.14605e-17
9772.4023 1.00508e-17
9773.5928 1.11907e-17
9774.7842 8.61486e-18
9775.9746 8.22332e-18
9777.166 9.20964e-18
9778.3564 9.43959e-18
9779.5469 9.75148e-18
9780.7383 9.3576e-18
9781.9287 9.31635e-18
9783.1191 9.81806e-18
9784.3096 8.30945e-18
9785.501 7.6245e-18
9786.6914 8.58609e-18
9787.8818 1.50094e-17
9789.0723 1.99456e-17
9790.2627 8.19273e-18
9791.4541 7.86935e-18
9792.6445 7.91264e-18
9793.835 1.01432e-17
9795.0254 -1.99434e-18
9796.2158 1.09208e-18
9797.4062 7.97229e-18
9798.5967 9.99826e-18
9799.7871 7.36561e-18
9800.9775 1.35007e-17
9802.168 8.72398e-18
9803.3584 8.74531e-18
9804.5488 1.04033e-17
9805.7393 1.07621e-17
9806.9297 9.0055e-18
9808.1201 1.1765e-17
9809.3105 1.18386e-17
9810.501 1.30586e-17
9811.6914 1.16773e-17
9812.8818 1.38732e-17
9814.0713 1.2248e-17
9815.2617 1.42021e-17
9816.4521 1.1522e-17
9817.6426 1.01078e-17
9818.833 1.01336e-17
9820.0225 9.06886e-18
9821.2129 8.55455e-18
9822.4033 8.46931e-18
9823.5928 7.20141e-18
9824.7832 8.29993e-18
9825.9736 8.67608e-18
9827.1631 9.87619e-18
9828.3535 1.02132e-17
9829.5439 9.33224e-18
9830.7334 7.73692e-18
9831.9238 9.24306e-18
9833.1133 1.04791e-17
9834.3037 9.20967e-18
9835.4932 9.36048e-18
9836.6836 8.70983e-18
9837.873 9.63595e-18
9839.0635 7.53303e-18
9840.2529 8.44903e-18
9841.4434 8.67946e-18
9842.6328 8.31954e-18
9843.8232 6.04657e-18
9845.0127 6.4741e-18
9846.2021 1.13951e-17
9847.3926 1.04614e-17
9848.582 9.88909e-18
9849.7725 9.03524e-18
9850.9619 7.29479e-18
9852.1514 6.47795e-18
9853.3408 6.66407e-18
9854.5312 8.7002e-18
9855.7207 9.12129e-18
9856.9102 8.42718e-18
9858.0996 1.16136e-17
9859.2891 8.61537e-18
9860.4795 9.87463e-18
9861.6689 8.92298e-18
9862.8584 7.87663e-18
9864.0479 9.24419e-18
9865.2373 9.68409e-18
9866.4268 5.5784e-18
9867.6162 3.68604e-18
9868.8057 9.59963e-18
9869.9951 1.44586e-17
9871.1846 1.14488e-17
9872.374 1.37348e-17
9873.5635 7.96115e-18
9874.7529 6.16256e-18
9875.9424 3.77944e-18
9877.1318 8.08038e-18
9878.3213 8.46454e-18
9879.5107 1.01542e-17
9880.7002 1.05383e-17
9881.8896 8.10587e-18
9883.0791 1.03815e-17
9884.2676 8.39402e-18
9885.457 8.39746e-18
9886.6465 7.65032e-18
9887.8359 9.16593e-18
9889.0244 9.11022e-18
9890.2139 1.05908e-17
9891.4033 1.09276e-17
9892.5928 1.43349e-17
9893.7812 1.27137e-17
9894.9707 1.08146e-17
9896.1602 1.08402e-17
9897.3486 6.18529e-18
9898.5381 5.60579e-18
9899.7275 6.70669e-18
9900.916 6.80289e-18
9902.1055 1.00264e-17
9903.2939 8.56951e-18
9904.4834 8.08852e-18
9905.6719 9.06193e-18
9906.8613 9.62255e-18
9908.0498 8.73016e-18
9909.2393 7.49489e-18
9910.4277 9.1468e-18
9911.6172 1.73865e-17
9912.8057 1.66584e-17
9913.9941 1.62316e-17
9915.1836 3.96887e-18
9916.3721 3.69568e-18
9917.5615 2.38704e-19
9918.75 -3.59513e-18
9919.9385 1.66712e-18
9921.127 8.00967e-18
9922.3164 9.14401e-18
9923.5049 7.52446e-18
9924.6934 7.09004e-18
9925.8818 8.91952e-18
9927.0713 9.11548e-18
9928.2598 9.0832e-18
9929.4482 8.3394e-18
9930.6367 9.7383e-18
9931.8252 9.39901e-18
9933.0146 8.91365e-18
9934.2031 9.57945e-18
9935.3916 1.14216e-17
9936.5801 8.83853e-18
9937.7686 6.96746e-18
9938.957 1.64689e-17
9940.1455 5.68578e-18
9941.334 1.11672e-17
9942.5225 1.55152e-17
9943.7109 1.11771e-17
9944.8994 1.13666e-17
9946.0879 1.17044e-17
9947.2764 8.64668e-18
9948.4648 7.8929e-18
9949.6523 -2.42275e-18
9950.8408 5.53173e-19
9952.0293 1.90465e-18
9953.2178 9.28248e-18
9954.4062 1.13898e-17
9955.5947 9.1344e-18
9956.7822 9.64048e-18
9957.9707 9.88239e-18
9959.1592 1.14526e-17
9960.3477 9.91927e-18
9961.5352 6.86536e-18
9962.7236 1.21842e-17
9963.9121 1.25895e-17
9965.1006 7.43233e-18
9966.2881 6.72867e-18
9967.4766 6.18335e-18
9968.6641 6.72414e-18
9969.8525 8.74043e-18
9971.041 1.18012e-17
9972.2285 7.4006e-18
9973.417 1.22276e-17
9974.6045 7.72627e-18
9975.793 9.353e-18
9976.9805 7.48003e-18
9978.1689 8.00304e-18
9979.3564 1.09499e-17
9980.5449 5.67734e-18
9981.7324 8.83935e-18
9982.9199 8.35452e-18
9984.1084 9.34099e-18
9985.2959 9.40647e-18
9986.4844 9.83482e-18
9987.6719 8.72283e-18
9988.8594 8.95594e-18
9990.0479 7.91875e-18
9991.2354 9.04007e-18
9992.4229 7.82941e-18
9993.6104 6.88306e-18
9994.7988 9.26527e-18
9995.9863 1.02839e-17
9997.1738 1.24669e-17
9998.3613 1.20013e-17
9999.5488 1.14681e-17
10000.737 1.08945e-17
10001.925 8.92659e-18
10003.112 9.21488e-18
10004.3 8.332e-18
10005.487 8.60655e-18
10006.675 6.44876e-18
10007.863 8.16107e-18
10009.05 1.27427e-17
10010.238 1.42028e-17
10011.425 2.91367e-17
10012.613 2.31258e-17
10013.8 7.22939e-18
10014.988 4.3541e-18
10016.175 -1.13421e-18
10017.362 4.39237e-18
10018.55 1.79061e-18
10019.737 1.18571e-17
10020.925 9.94531e-18
10022.112 1.32534e-17
10023.299 1.5248e-17
10024.487 1.26786e-17
10025.674 1.11639e-17
10026.861 1.0281e-17
10028.049 7.54772e-18
10029.236 5.17668e-18
10030.423 4.29727e-18
10031.61 6.11136e-18
10032.798 8.4675e-18
10033.985 9.67028e-18
10035.172 1.06914e-17
10036.359 8.07521e-18
10037.546 5.02374e-18
10038.733 8.77167e-18
10039.92 9.95252e-18
10041.108 8.13184e-18
10042.295 7.60463e-18
10043.482 7.91846e-18
10044.669 7.43979e-18
10045.856 7.74401e-18
10047.043 7.71438e-18
10048.23 8.71785e-18
10049.417 1.07009e-17
10050.604 1.10071e-17
10051.791 7.14848e-18
10052.978 8.1977e-18
10054.165 7.3379e-18
10055.352 9.19499e-18
10056.538 1.01397e-17
10057.725 6.09204e-18
10058.912 1.09116e-17
10060.099 1.03874e-17
10061.286 1.39129e-17
10062.473 9.24607e-18
10063.659 6.47279e-18
10064.846 7.08458e-18
10066.033 1.01289e-17
10067.22 9.30351e-18
10068.406 8.44611e-18
10069.593 1.17216e-17
10070.78 1.06532e-17
10071.967 6.78438e-18
10073.153 1.08292e-17
10074.34 9.62465e-18
10075.527 6.02805e-18
10076.713 6.15527e-18
10077.9 2.62844e-18
10079.086 5.23519e-18
10080.273 1.61963e-17
10081.459 9.7923e-18
10082.646 1.95268e-17
10083.833 8.84293e-18
10085.019 5.37981e-18
10086.206 5.61057e-18
10087.392 8.495e-18
10088.578 8.87388e-18
10089.765 9.24679e-18
10090.951 1.0264e-17
10092.138 1.02241e-17
10093.324 7.57652e-18
10094.511 6.503e-18
10095.697 9.10065e-18
10096.883 7.81166e-18
10098.07 8.74478e-18
10099.256 1.00351e-17
10100.442 1.29012e-17
10101.629 1.14825e-17
10102.815 1.26572e-17
10104.001 8.62103e-18
10105.187 9.13796e-18
10106.374 2.58738e-18
10107.56 2.8375e-18
10108.746 8.59726e-18
10109.932 8.44117e-18
10111.118 9.6182e-18
10112.304 1.06527e-17
10113.491 9.1086e-18
10114.677 8.94114e-18
10115.863 8.59491e-18
10117.049 9.82453e-18
10118.235 7.04813e-18
10119.421 5.55608e-18
10120.607 4.46592e-18
10121.793 1.75031e-17
10122.979 1.73328e-17
10124.165 2.11671e-17
10125.351 4.76882e-18
10126.537 4.14288e-18
10127.723 -3.1179e-18
10128.909 5.15477e-18
10130.095 5.89433e-18
10131.281 9.47915e-18
10132.467 7.51006e-18
10133.652 6.16545e-18
10134.838 5.21405e-18
10136.024 9.46093e-18
10137.21 1.05107e-17
10138.396 8.08037e-18
10139.581 9.86337e-18
10140.767 6.89163e-18
10141.953 9.97384e-18
10143.139 8.55826e-18
10144.324 6.4779e-18
10145.51 6.80458e-18
10146.696 7.68275e-18
10147.882 6.18951e-18
10149.067 8.10466e-18
10150.253 1.42753e-17
10151.439 9.62341e-18
10152.624 1.2045e-17
10153.81 6.05715e-18
10154.995 1.44651e-17
10156.181 2.81168e-18
10157.366 2.68103e-18
10158.552 9.34436e-18
10159.738 8.98191e-18
10160.923 6.68176e-18
10162.109 6.16954e-18
10163.294 7.99087e-18
10164.479 1.06428e-17
10165.665 4.43395e-18
10166.85 1.84604e-18
10168.036 1.11879e-17
10169.221 1.89727e-17
10170.407 1.53974e-17
10171.592 1.23326e-17
10172.777 2.83024e-17
10173.963 1.00358e-17
10175.148 1.68232e-18
10176.333 -9.65126e-19
10177.519 2.66821e-18
10178.704 9.81015e-18
10179.889 8.11113e-18
10181.074 1.14785e-17
10182.26 7.7141e-18
10183.445 6.06431e-18
10184.63 1.82245e-18
10185.815 3.07575e-18
10187.001 2.15305e-17
10188.186 8.98063e-18
10189.371 9.951e-19
10190.556 1.09794e-17
10191.741 9.59312e-18
10192.926 8.23833e-18
10194.111 -5.33634e-19
10195.296 8.06719e-18
10196.481 8.75341e-18
10197.666 7.99006e-18
10198.852 4.16358e-18
10200.037 1.24665e-17
10201.222 8.01663e-18
10202.407 8.63383e-18
10203.592 8.67132e-18
10204.776 3.31229e-18
10205.961 2.00565e-18
10207.146 -5.96959e-18
10208.331 6.1419e-18
10209.516 9.03491e-18
10210.701 4.08905e-18
10211.886 4.13266e-18
10213.071 -2.65448e-18
10214.256 1.278e-18
10215.44 5.21032e-18
10216.625 7.7545e-18
10217.81 7.25615e-18
10218.995 9.31685e-18
10220.18 3.18461e-18
10221.364 7.78671e-18
10222.549 1.14131e-17
10223.734 6.41779e-18
10224.919 8.12732e-18
10226.103 1.0629e-17
10227.288 2.02492e-17
10228.473 8.59848e-18
10229.657 -1.28558e-18
10230.842 3.51048e-18
10232.027 1.04577e-17
10233.211 1.05639e-17
10234.396 4.11875e-18
10235.58 8.18411e-18
10236.765 9.10979e-18
10237.949 1.08357e-17
10239.134 1.10099e-17
10240.318 5.49005e-18
10241.503 8.91787e-18
10242.688 9.36099e-18
10243.872 5.71855e-18
10245.056 8.79118e-18
10246.241 1.02105e-17
10247.425 1.01024e-17
10248.61 9.75042e-18
10249.794 1.0933e-17
10250.979 6.08475e-18
10252.163 7.55351e-18
10253.347 8.62061e-18
10254.532 7.55837e-18
10255.716 1.03148e-17
10256.9 7.59242e-18
10258.085 1.15407e-17
10259.269 7.96103e-18
10260.453 1.13568e-17
10261.638 8.87341e-18
10262.822 7.96127e-18
10264.006 8.48262e-18
10265.19 8.41745e-18
10266.374 9.06225e-18
10267.559 9.48443e-18
10268.743 8.95387e-18
10269.927 7.47698e-18
10271.111 1.06318e-17
10272.295 3.54737e-18
10273.48 1.17596e-17
10274.664 8.55564e-18
10275.848 4.87114e-18
10277.032 4.94349e-18
10278.216 3.82451e-18
10279.4 -4.91422e-19
10280.584 4.93751e-18
10281.768 1.1993e-17
10282.952 8.07533e-18
10284.136 2.04938e-17
10285.32 1.21827e-17
10286.504 1.01505e-17
10287.688 1.03017e-17
10288.872 -1.7683e-18
10290.056 -1.06953e-17
10291.24 6.6175e-18
10292.424 1.59314e-17
10293.608 4.63142e-18
10294.792 5.08693e-18
10295.975 1.2457e-17