BITPIX  =                    8  /  8-bit ASCII characters                       
NAXIS   =                    1  /  Number of Image Dimensions                   
NAXIS1  =                 4788  /  Length of axis                               
ORIGIN  = 'NOAO-IRAF: WTEXTIMAGE'  /
IRAF-MAX=                   0.  /  Max image pixel (out of date)                
IRAF-MIN=                   0.  /  Min image pixel (out of date)                
IRAF-B/P=                   32  /  Image bits per pixel                         
IRAFTYPE= 'REAL FLOATING     '  /  Image datatype                              
OBJECT  = '13EBH             '  /                                              
FILENAME= 'PTF13EBH_20131126_P200_DBSP'  /
FORMAT  = '5G14.7            '  /  Text line format                            
EXTEND  =                    T / File may contain extensions                    
ORIGIN  = 'NOAO-IRAF FITS Image Kernel July 2003' / FITS file originator        
DATE    = '2024-04-22T21:16:24' / Date FITS file was generated                  
IRAF-TLM= '2024-04-22T21:16:24' / Time of last modification                     
COMMENT   FITS (Flexible Image Transport System) format defined in Astronomy and
COMMENT   Astrophysics Supplement Series v44/p363, v44/p371, v73/p359, v73/p365.
COMMENT   Contact the NASA Science Office of Standards and Technology for the   
COMMENT   FITS Definition document #100 and other FITS information.             
OBJECT  = '13ebh   '           / object title                                   
OBSERVER= 'Waszczak'           / observer                                       
IMGTYPE = 'object  '           / observation type                               
GAIN    =                  2.8 / e-/adu                                         
RON     =                  8.5 / system noise                                   
DICHROIC= 'D55     '           / Dichroic                                       
APERTURE= '2.0     '           / aperture (arcsecs)                             
TURRET  = 'APERTURE'           / turret position                                
LAMPS   = '0000000 '           / lamps: D-FeAr-Hg-Ar-Ne-He-InCand               
RFILTER = 'OPEN    '           /  filter wheel                                  
OEXPTIME=                 600. / originaly req. exposure time                   
EXPTIME =                 600. / actual exposure time                           
UTSHUT  = '2013-11-26T09:44:26.559' / UT shutter open                           
NAMPSXY = '1 1     '           / number of amplifiers in y x                    
CCDSUM  = '1 1     '           / binning in x y                                 
ASEC1   = '[1:4141,1:440]'     / amplifier section 1(LL)                        
BSEC1   = '[4122:4141,1:440]'  / bias section 1(LL)                             
CSEC1   = '[1:4121,1:440]'     / ccd section 1(LL)                              
DSEC1   = '[1:4121,1:440]'     / data section 1(LL)                             
TSEC1   = '[8:4121,1:440]'     / trim section 1(LL)                             
ROISEC  = '[1:4114,780:1219]'  / roi section                                    
DETID   = 'LBNL_4Kx2K_1'       / detector ID                                    
DETNUM  = '1       '           / Detector Number                                
DETNAM  = 'LBNL_4Kx2K'         / detector name                                  
FPA     = 'DBSP_RED2'          / focal plan array                               
UTC     = '330 09:44:26.6'     / <elapsed days> <time-obs>                      
UT      = '09:44:26.6'         / time-obs                                       
OBSLST  = '06:18:56.3'         / lst-obs                                        
RA      = '02:22:00.88'        / Right Ascencion                                
DEC     = '+33:16:17.0'        / Declination                                    
HOURANG = 'W03:56:03.4'        / Hour angle, TCS format                         
HA      = '+03:56:03.4'        / Hour angle                                     
AIRMASS = '1.547517'           / Airmass                                        
TELID   = '200     '           / telescope ID                                   
TELFOCUS= '42.27 mm'           / focus position                                 
CASSPA  = '72.00   '           / cass ring angle                                
PARALLAC= '72.69   '           / parallactic angle                              
DHE     = 'SDSU Gen III'       / controller info                                
CCDTEMP = '130.025 '           / detector mount temp                            
SOFTVER = '3.4     '           / software version                               
HDR_REV = '4.3     '           / gfits version                                  
GCOMMENT= '        '           / comment                                        
ANGLE   = '24 deg 38 min'      / Grating Angle                                  
GRATING = '316/7500'           / lines/mm & Blaze                               
CRVAL1  =              3400.00 /                                                
CRPIX1  =                    1 /                                                
DATE-OBS= '2013-11-26'                                                          
OBSERVAT= 'palomar '                                                            
TIME    = '09:44:26.6'                                                          
OPT_PA  =      72.231525043579                                                  
TELESCOP= 'P200    '                                                            
ST      = '6:18:55.92'                                                          
EPOCH   =     2013.90254856519                                                  
UTMIDDLE= '2013-11-26T09:49:26.60'                                              
BANDID1 = 'spectrum - background fit, weights variance, clean yes'              
BANDID2 = 'raw - background fit, weights none, clean no'                        
BANDID3 = 'background - background fit'                                         
BANDID4 = 'sigma - background fit, weights variance, clean yes'                 
APNUM1  = '1 1 127.41 157.41'                                                   
DC-FLAG =                    0                                                  
DCLOG1  = 'REFSPEC1 = arc_redc.ms'                                              
FLUX_Z  =        1.05713500000 /                                                
FLUX_NUM=                    0 /                                                
FLUX_OBJ= 'Feige34 '           /                                                
OBS_PA  =        72.0000000000 /observed position angle                         
CDELT1  =              1.50000 /                                                
CTYPE1  = 'LINEAR  '           /                                                
W_RANGE = '5300 10580'         /                                                
BSTAR_Z =        1.05713500000 /                                                
BSTARNUM=                    0 /                                                
BSTAROBJ= 'Feige34 '           /                                                
BARYVEL =       -28.0365089630 /                                                
SKYSHIFT=      -0.307657201871 /                                                
ATMSHIFT=       0.922885297643 /                                                
EXTRACT = 'optimal '           /                                                
REDUCER = 'admin   '           /                                                
RED_DATE= 'Tue Nov 26 17:58:29 2013' /EPOCH OF REDUCTION                        
END                                                                             
                                                                                
                                                                                
                                                                                
                                                                                
                                                                                
                                                                                
                                                                                
                                                                                
                                                                                
3400.  2.507610E-15
3401.5  2.240427E-15
3403.  2.707964E-15
3404.5  2.658163E-15
3406.  2.610440E-15
3407.5  2.544452E-15
3409.  2.637235E-15
3410.5  2.806682E-15
3412.  2.718909E-15
3413.5  2.500662E-15
3415.  2.562650E-15
3416.5  2.685513E-15
3418.  2.828805E-15
3419.5  2.748731E-15
3421.  2.678863E-15
3422.5  2.848954E-15
3424.  2.864330E-15
3425.5  2.775402E-15
3427.  2.893275E-15
3428.5  2.900570E-15
3430.  2.951285E-15
3431.5  2.932498E-15
3433.  2.699912E-15
3434.5  2.612115E-15
3436.  2.583249E-15
3437.5  2.968494E-15
3439.  2.993942E-15
3440.5  2.927540E-15
3442.  2.687494E-15
3443.5  2.949582E-15
3445.  3.027030E-15
3446.5  2.799598E-15
3448.  2.840949E-15
3449.5  3.092806E-15
3451.  3.004719E-15
3452.5  3.289786E-15
3454.  3.052538E-15
3455.5  2.736197E-15
3457.  2.959610E-15
3458.5  3.015478E-15
3460.  2.804698E-15
3461.5  2.689826E-15
3463.  2.593697E-15
3464.5  2.727503E-15
3466.  2.955607E-15
3467.5  2.825379E-15
3469.  3.002891E-15
3470.5  3.042287E-15
3472.  2.746367E-15
3473.5  3.062082E-15
3475.  2.957682E-15
3476.5  3.394130E-15
3478.  3.050735E-15
3479.5  2.910750E-15
3481.  3.189838E-15
3482.5  3.059938E-15
3484.  3.339036E-15
3485.5  3.061045E-15
3487.  2.906065E-15
3488.5  2.805884E-15
3490.  2.966880E-15
3491.5  3.162937E-15
3493.  2.984853E-15
3494.5  3.140808E-15
3496.  3.102757E-15
3497.5  2.840244E-15
3499.  2.991951E-15
3500.5  3.108895E-15
3502.  3.051610E-15
3503.5  3.134386E-15
3505.  2.988726E-15
3506.5  3.198102E-15
3508.  3.243752E-15
3509.5  3.245534E-15
3511.  3.076628E-15
3512.5  3.229678E-15
3514.  3.105440E-15
3515.5  3.000719E-15
3517.  2.921395E-15
3518.5  3.037574E-15
3520.  2.949453E-15
3521.5  2.895967E-15
3523.  3.203829E-15
3524.5  3.155882E-15
3526.  3.150324E-15
3527.5  2.996916E-15
3529.  3.012350E-15
3530.5  2.964101E-15
3532.  2.983823E-15
3533.5  2.890205E-15
3535.  2.821346E-15
3536.5  3.040929E-15
3538.  3.038705E-15
3539.5  3.275113E-15
3541.  3.301058E-15
3542.5  3.358030E-15
3544.  3.213419E-15
3545.5  3.144073E-15
3547.  3.232000E-15
3548.5  3.395789E-15
3550.  3.615170E-15
3551.5  3.460525E-15
3553.  3.451993E-15
3554.5  3.675063E-15
3556.  3.800147E-15
3557.5  3.987218E-15
3559.  3.665669E-15
3560.5  3.691853E-15
3562.  3.857842E-15
3563.5  3.934498E-15
3565.  3.816096E-15
3566.5  3.787612E-15
3568.  3.804577E-15
3569.5  3.726815E-15
3571.  3.861287E-15
3572.5  4.169941E-15
3574.  4.005543E-15
3575.5  3.906817E-15
3577.  3.880252E-15
3578.5  3.941606E-15
3580.  3.908180E-15
3581.5  3.852251E-15
3583.  3.977729E-15
3584.5  4.033845E-15
3586.  4.117871E-15
3587.5  4.043859E-15
3589.  3.972394E-15
3590.5  4.090565E-15
3592.  3.976433E-15
3593.5  3.908837E-15
3595.  4.004372E-15
3596.5  3.870778E-15
3598.  3.840445E-15
3599.5  4.076573E-15
3601.  3.986782E-15
3602.5  3.876563E-15
3604.  3.808788E-15
3605.5  3.860090E-15
3607.  4.025466E-15
3608.5  4.121997E-15
3610.  4.075393E-15
3611.5  4.003426E-15
3613.  3.993517E-15
3614.5  4.114565E-15
3616.  4.060568E-15
3617.5  4.082717E-15
3619.  4.023714E-15
3620.5  4.092189E-15
3622.  4.148027E-15
3623.5  3.818067E-15
3625.  4.034096E-15
3626.5  4.042361E-15
3628.  3.924248E-15
3629.5  3.808381E-15
3631.  3.956016E-15
3632.5  3.743195E-15
3634.  3.747954E-15
3635.5  3.931909E-15
3637.  4.071902E-15
3638.5  3.718301E-15
3640.  3.955352E-15
3641.5  3.992345E-15
3643.  3.952613E-15
3644.5  3.964900E-15
3646.  3.982732E-15
3647.5  3.941922E-15
3649.  3.835206E-15
3650.5  3.691981E-15
3652.  3.895922E-15
3653.5  3.822069E-15
3655.  3.476763E-15
3656.5  3.545739E-15
3658.  3.501328E-15
3659.5  3.388784E-15
3661.  3.497352E-15
3662.5  3.411062E-15
3664.  3.598182E-15
3665.5  3.488466E-15
3667.  3.416531E-15
3668.5  3.359364E-15
3670.  3.599747E-15
3671.5  3.545320E-15
3673.  3.339216E-15
3674.5  3.421746E-15
3676.  3.490369E-15
3677.5  3.461309E-15
3679.  3.565815E-15
3680.5  3.711356E-15
3682.  3.537740E-15
3683.5  3.769181E-15
3685.  3.625982E-15
3686.5  3.618598E-15
3688.  3.780582E-15
3689.5  3.954814E-15
3691.  3.976848E-15
3692.5  4.064452E-15
3694.  4.224232E-15
3695.5  4.418909E-15
3697.  4.411323E-15
3698.5  4.287050E-15
3700.  4.531580E-15
3701.5  4.580260E-15
3703.  4.726981E-15
3704.5  4.709139E-15
3706.  4.764567E-15
3707.5  4.651082E-15
3709.  4.713575E-15
3710.5  4.671282E-15
3712.  4.756919E-15
3713.5  4.679805E-15
3715.  4.416672E-15
3716.5  4.636466E-15
3718.  4.443067E-15
3719.5  4.337266E-15
3721.  4.171712E-15
3722.5  4.056262E-15
3724.  4.126893E-15
3725.5  3.984470E-15
3727.  3.867338E-15
3728.5  3.739221E-15
3730.  3.710378E-15
3731.5  3.681508E-15
3733.  3.523062E-15
3734.5  3.622131E-15
3736.  3.496068E-15
3737.5  3.446624E-15
3739.  3.305872E-15
3740.5  3.472024E-15
3742.  3.299086E-15
3743.5  3.043579E-15
3745.  2.908336E-15
3746.5  2.897370E-15
3748.  2.933070E-15
3749.5  2.954572E-15
3751.  2.801969E-15
3752.5  2.787648E-15
3754.  2.833125E-15
3755.5  2.855861E-15
3757.  2.809078E-15
3758.5  2.562955E-15
3760.  2.677590E-15
3761.5  2.616794E-15
3763.  2.733207E-15
3764.5  2.608473E-15
3766.  2.629144E-15
3767.5  2.607740E-15
3769.  2.541419E-15
3770.5  2.537287E-15
3772.  2.338369E-15
3773.5  2.482221E-15
3775.  2.528102E-15
3776.5  2.367810E-15
3778.  2.429654E-15
3779.5  2.487925E-15
3781.  2.242907E-15
3782.5  2.306299E-15
3784.  2.355364E-15
3785.5  2.240178E-15
3787.  2.316789E-15
3788.5  2.322212E-15
3790.  2.275010E-15
3791.5  2.353124E-15
3793.  2.349806E-15
3794.5  2.278182E-15
3796.  2.312859E-15
3797.5  2.323693E-15
3799.  2.391147E-15
3800.5  2.415821E-15
3802.  2.199697E-15
3803.5  2.157896E-15
3805.  2.247837E-15
3806.5  2.363041E-15
3808.  2.245665E-15
3809.5  2.405454E-15
3811.  2.320980E-15
3812.5  2.352825E-15
3814.  2.182073E-15
3815.5  2.163762E-15
3817.  2.331057E-15
3818.5  2.288654E-15
3820.  2.260293E-15
3821.5  2.233400E-15
3823.  2.193793E-15
3824.5  2.192733E-15
3826.  2.209327E-15
3827.5  2.221246E-15
3829.  2.343012E-15
3830.5  2.241740E-15
3832.  2.318497E-15
3833.5  2.319472E-15
3835.  2.450680E-15
3836.5  2.541392E-15
3838.  2.497816E-15
3839.5  2.165576E-15
3841.  2.331080E-15
3842.5  2.366728E-15
3844.  2.289738E-15
3845.5  2.444413E-15
3847.  2.414568E-15
3848.5  2.393446E-15
3850.  2.492162E-15
3851.5  2.572441E-15
3853.  2.486458E-15
3854.5  2.487392E-15
3856.  2.512828E-15
3857.5  2.537742E-15
3859.  2.542432E-15
3860.5  2.547189E-15
3862.  2.569515E-15
3863.5  2.677793E-15
3865.  2.760998E-15
3866.5  2.744035E-15
3868.  2.742174E-15
3869.5  2.878557E-15
3871.  2.816509E-15
3872.5  2.941246E-15
3874.  3.006491E-15
3875.5  3.108587E-15
3877.  3.208301E-15
3878.5  3.227190E-15
3880.  3.349125E-15
3881.5  3.498191E-15
3883.  3.564213E-15
3884.5  3.639181E-15
3886.  3.828193E-15
3887.5  3.856923E-15
3889.  3.858494E-15
3890.5  3.773304E-15
3892.  3.923678E-15
3893.5  3.984831E-15
3895.  3.921535E-15
3896.5  4.148266E-15
3898.  4.190085E-15
3899.5  4.250127E-15
3901.  4.302055E-15
3902.5  4.259432E-15
3904.  4.410979E-15
3905.5  4.467772E-15
3907.  4.574503E-15
3908.5  4.616875E-15
3910.  4.762131E-15
3911.5  4.670626E-15
3913.  4.766571E-15
3914.5  4.886960E-15
3916.  4.958605E-15
3917.5  5.020263E-15
3919.  4.981072E-15
3920.5  5.180219E-15
3922.  5.359959E-15
3923.5  5.293347E-15
3925.  5.346024E-15
3926.5  5.435562E-15
3928.  5.499955E-15
3929.5  5.498777E-15
3931.  5.442386E-15
3932.5  5.426471E-15
3934.  5.632580E-15
3935.5  5.740361E-15
3937.  6.055234E-15
3938.5  6.075735E-15
3940.  6.240151E-15
3941.5  6.318964E-15
3943.  6.268789E-15
3944.5  6.228129E-15
3946.  6.484843E-15
3947.5  6.723538E-15
3949.  6.728258E-15
3950.5  6.634365E-15
3952.  6.749948E-15
3953.5  6.902626E-15
3955.  6.785184E-15
3956.5  6.716595E-15
3958.  6.649369E-15
3959.5  6.729021E-15
3961.  6.644489E-15
3962.5  6.582036E-15
3964.  6.654178E-15
3965.5  6.667253E-15
3967.  6.621098E-15
3968.5  6.659248E-15
3970.  6.705981E-15
3971.5  6.609483E-15
3973.  6.582213E-15
3974.5  6.758776E-15
3976.  6.814039E-15
3977.5  6.772466E-15
3979.  6.577451E-15
3980.5  6.620128E-15
3982.  6.660635E-15
3983.5  6.539082E-15
3985.  6.702298E-15
3986.5  6.776321E-15
3988.  6.692913E-15
3989.5  6.744560E-15
3991.  6.767536E-15
3992.5  6.703941E-15
3994.  6.747645E-15
3995.5  6.732435E-15
3997.  6.740039E-15
3998.5  6.611095E-15
4000.  6.396014E-15
4001.5  6.375643E-15
4003.  6.240106E-15
4004.5  6.143020E-15
4006.  6.044692E-15
4007.5  5.836244E-15
4009.  5.981003E-15
4010.5  5.855819E-15
4012.  5.713688E-15
4013.5  5.631470E-15
4015.  5.505942E-15
4016.5  5.434066E-15
4018.  5.195001E-15
4019.5  5.146614E-15
4021.  5.082283E-15
4022.5  5.061451E-15
4024.  5.128828E-15
4025.5  5.035511E-15
4027.  4.967353E-15
4028.5  4.759044E-15
4030.  4.745784E-15
4031.5  4.756154E-15
4033.  4.612871E-15
4034.5  4.617687E-15
4036.  4.512563E-15
4037.5  4.435159E-15
4039.  4.237931E-15
4040.5  4.313572E-15
4042.  4.439796E-15
4043.5  4.505732E-15
4045.  4.412899E-15
4046.5  4.291177E-15
4048.  4.201559E-15
4049.5  4.389615E-15
4051.  4.407016E-15
4052.5  4.368101E-15
4054.  4.284952E-15
4055.5  4.262377E-15
4057.  4.328711E-15
4058.5  4.255620E-15
4060.  4.345880E-15
4061.5  4.346457E-15
4063.  4.365899E-15
4064.5  4.497403E-15
4066.  4.397687E-15
4067.5  4.409580E-15
4069.  4.425349E-15
4070.5  4.516519E-15
4072.  4.373884E-15
4073.5  4.321970E-15
4075.  4.487310E-15
4076.5  4.499430E-15
4078.  4.515594E-15
4079.5  4.724478E-15
4081.  4.726153E-15
4082.5  4.657169E-15
4084.  4.757107E-15
4085.5  4.756179E-15
4087.  4.739776E-15
4088.5  4.932546E-15
4090.  4.947419E-15
4091.5  5.057460E-15
4093.  5.088845E-15
4094.5  5.070676E-15
4096.  5.224598E-15
4097.5  5.266925E-15
4099.  5.306841E-15
4100.5  5.379053E-15
4102.  5.469702E-15
4103.5  5.468869E-15
4105.  5.513967E-15
4106.5  5.650608E-15
4108.  5.821933E-15
4109.5  5.869831E-15
4111.  5.989628E-15
4112.5  5.971479E-15
4114.  6.011682E-15
4115.5  6.033201E-15
4117.  6.102454E-15
4118.5  6.139905E-15
4120.  6.175876E-15
4121.5  6.117927E-15
4123.  6.109457E-15
4124.5  6.084703E-15
4126.  6.024894E-15
4127.5  6.049254E-15
4129.  6.170016E-15
4130.5  6.262042E-15
4132.  6.205698E-15
4133.5  6.239482E-15
4135.  6.339106E-15
4136.5  6.296229E-15
4138.  6.341885E-15
4139.5  6.344657E-15
4141.  6.337922E-15
4142.5  6.335625E-15
4144.  6.429051E-15
4145.5  6.300537E-15
4147.  6.442315E-15
4148.5  6.476489E-15
4150.  6.461488E-15
4151.5  6.481178E-15
4153.  6.476096E-15
4154.5  6.491969E-15
4156.  6.695722E-15
4157.5  6.619429E-15
4159.  6.562247E-15
4160.5  6.712094E-15
4162.  6.721245E-15
4163.5  6.617292E-15
4165.  6.721174E-15
4166.5  6.739709E-15
4168.  6.792918E-15
4169.5  6.728696E-15
4171.  6.650959E-15
4172.5  6.578915E-15
4174.  6.408582E-15
4175.5  6.620315E-15
4177.  6.543678E-15
4178.5  6.494011E-15
4180.  6.483554E-15
4181.5  6.393251E-15
4183.  6.463450E-15
4184.5  6.451854E-15
4186.  6.419058E-15
4187.5  6.366423E-15
4189.  6.331075E-15
4190.5  6.259070E-15
4192.  6.229500E-15
4193.5  6.209859E-15
4195.  6.281279E-15
4196.5  6.284501E-15
4198.  6.240287E-15
4199.5  6.260789E-15
4201.  6.263117E-15
4202.5  6.388970E-15
4204.  6.247903E-15
4205.5  6.197447E-15
4207.  6.156391E-15
4208.5  6.062539E-15
4210.  6.180509E-15
4211.5  6.172685E-15
4213.  6.154105E-15
4214.5  6.124108E-15
4216.  6.107604E-15
4217.5  6.082660E-15
4219.  6.078133E-15
4220.5  6.107066E-15
4222.  6.076589E-15
4223.5  6.054860E-15
4225.  5.974509E-15
4226.5  6.077486E-15
4228.  6.229201E-15
4229.5  6.185533E-15
4231.  6.055135E-15
4232.5  5.873187E-15
4234.  5.973032E-15
4235.5  6.061688E-15
4237.  6.005506E-15
4238.5  5.953942E-15
4240.  6.035747E-15
4241.5  6.062165E-15
4243.  5.916263E-15
4244.5  5.895819E-15
4246.  5.889000E-15
4247.5  5.873615E-15
4249.  5.880117E-15
4250.5  5.888416E-15
4252.  5.888614E-15
4253.5  5.733298E-15
4255.  5.798657E-15
4256.5  5.738505E-15
4258.  5.794496E-15
4259.5  5.611160E-15
4261.  5.630227E-15
4262.5  5.755062E-15
4264.  5.720996E-15
4265.5  5.512182E-15
4267.  5.361470E-15
4268.5  5.495201E-15
4270.  5.374510E-15
4271.5  5.314381E-15
4273.  5.374892E-15
4274.5  5.357878E-15
4276.  5.416921E-15
4277.5  5.413701E-15
4279.  5.461401E-15
4280.5  5.406065E-15
4282.  5.342831E-15
4283.5  5.366119E-15
4285.  5.360272E-15
4286.5  5.393508E-15
4288.  5.365415E-15
4289.5  5.247022E-15
4291.  5.282617E-15
4292.5  5.314662E-15
4294.  5.260271E-15
4295.5  5.180298E-15
4297.  5.049717E-15
4298.5  5.194246E-15
4300.  5.182655E-15
4301.5  5.237975E-15
4303.  5.242686E-15
4304.5  5.034307E-15
4306.  5.103667E-15
4307.5  5.059387E-15
4309.  5.117232E-15
4310.5  5.127595E-15
4312.  4.900393E-15
4313.5  4.909495E-15
4315.  4.793098E-15
4316.5  4.668644E-15
4318.  4.637605E-15
4319.5  4.483486E-15
4321.  4.424938E-15
4322.5  4.402606E-15
4324.  4.264580E-15
4325.5  4.156768E-15
4327.  4.095508E-15
4328.5  4.158489E-15
4330.  3.995667E-15
4331.5  3.933331E-15
4333.  3.832407E-15
4334.5  3.789826E-15
4336.  3.644121E-15
4337.5  3.635561E-15
4339.  3.481482E-15
4340.5  3.391228E-15
4342.  3.324062E-15
4343.5  3.369752E-15
4345.  3.333088E-15
4346.5  3.171287E-15
4348.  3.173016E-15
4349.5  3.093390E-15
4351.  3.029617E-15
4352.5  2.998114E-15
4354.  2.998569E-15
4355.5  2.927960E-15
4357.  2.701887E-15
4358.5  2.577909E-15
4360.  2.691242E-15
4361.5  2.841146E-15
4363.  2.785282E-15
4364.5  2.903775E-15
4366.  2.845549E-15
4367.5  2.860832E-15
4369.  2.842466E-15
4370.5  2.810428E-15
4372.  2.796303E-15
4373.5  2.926570E-15
4375.  2.932842E-15
4376.5  2.847457E-15
4378.  2.789376E-15
4379.5  2.925803E-15
4381.  3.009284E-15
4382.5  3.014276E-15
4384.  2.970072E-15
4385.5  3.020362E-15
4387.  3.161264E-15
4388.5  3.043310E-15
4390.  3.195279E-15
4391.5  3.227878E-15
4393.  3.333771E-15
4394.5  3.240402E-15
4396.  3.313195E-15
4397.5  3.232878E-15
4399.  3.164230E-15
4400.5  3.353040E-15
4402.  3.398414E-15
4403.5  3.452087E-15
4405.  3.448104E-15
4406.5  3.455549E-15
4408.  3.413420E-15
4409.5  3.544657E-15
4411.  3.523171E-15
4412.5  3.539969E-15
4414.  3.604190E-15
4415.5  3.633543E-15
4417.  3.661849E-15
4418.5  3.681483E-15
4420.  3.812875E-15
4421.5  3.732544E-15
4423.  3.641635E-15
4424.5  3.603940E-15
4426.  3.690213E-15
4427.5  3.790994E-15
4429.  3.770135E-15
4430.5  3.814288E-15
4432.  3.835299E-15
4433.5  3.759031E-15
4435.  3.865801E-15
4436.5  3.970995E-15
4438.  3.925811E-15
4439.5  3.848235E-15
4441.  3.900018E-15
4442.5  4.030602E-15
4444.  4.037660E-15
4445.5  4.026411E-15
4447.  3.923686E-15
4448.5  4.010767E-15
4450.  4.016176E-15
4451.5  4.071814E-15
4453.  3.991612E-15
4454.5  4.088977E-15
4456.  4.118703E-15
4457.5  4.097760E-15
4459.  4.075716E-15
4460.5  4.059826E-15
4462.  4.115123E-15
4463.5  4.004138E-15
4465.  4.089238E-15
4466.5  4.111223E-15
4468.  4.076972E-15
4469.5  4.028437E-15
4471.  4.103710E-15
4472.5  4.161339E-15
4474.  4.169643E-15
4475.5  4.230697E-15
4477.  4.271641E-15
4478.5  4.235149E-15
4480.  4.321387E-15
4481.5  4.160829E-15
4483.  4.167381E-15
4484.5  4.179281E-15
4486.  4.307320E-15
4487.5  4.371872E-15
4489.  4.271812E-15
4490.5  4.348280E-15
4492.  4.373230E-15
4493.5  4.297041E-15
4495.  4.294646E-15
4496.5  4.439539E-15
4498.  4.323096E-15
4499.5  4.338800E-15
4501.  4.371693E-15
4502.5  4.449292E-15
4504.  4.420135E-15
4505.5  4.445858E-15
4507.  4.495582E-15
4508.5  4.465925E-15
4510.  4.604499E-15
4511.5  4.583431E-15
4513.  4.601310E-15
4514.5  4.584462E-15
4516.  4.587005E-15
4517.5  4.568765E-15
4519.  4.616606E-15
4520.5  4.794973E-15
4522.  4.784395E-15
4523.5  4.876704E-15
4525.  4.797025E-15
4526.5  4.986849E-15
4528.  4.916456E-15
4529.5  4.921239E-15
4531.  4.975762E-15
4532.5  4.948330E-15
4534.  5.040947E-15
4535.5  5.054058E-15
4537.  5.152665E-15
4538.5  5.200128E-15
4540.  5.233648E-15
4541.5  5.233264E-15
4543.  5.203504E-15
4544.5  5.240886E-15
4546.  5.273011E-15
4547.5  5.234221E-15
4549.  5.399178E-15
4550.5  5.409468E-15
4552.  5.339782E-15
4553.5  5.257785E-15
4555.  5.307106E-15
4556.5  5.454242E-15
4558.  5.400226E-15
4559.5  5.424889E-15
4561.  5.358623E-15
4562.5  5.441351E-15
4564.  5.513596E-15
4565.5  5.584221E-15
4567.  5.473290E-15
4568.5  5.503741E-15
4570.  5.575449E-15
4571.5  5.534634E-15
4573.  5.593061E-15
4574.5  5.600216E-15
4576.  5.535043E-15
4577.5  5.646248E-15
4579.  5.683534E-15
4580.5  5.685642E-15
4582.  5.581884E-15
4583.5  5.566305E-15
4585.  5.707111E-15
4586.5  5.776384E-15
4588.  5.718526E-15
4589.5  5.810106E-15
4591.  5.843558E-15
4592.5  5.804289E-15
4594.  5.854454E-15
4595.5  5.883904E-15
4597.  5.786937E-15
4598.5  5.796561E-15
4600.  5.933590E-15
4601.5  5.906654E-15
4603.  5.974109E-15
4604.5  5.952084E-15
4606.  5.835996E-15
4607.5  5.864886E-15
4609.  5.816857E-15
4610.5  5.958268E-15
4612.  5.908616E-15
4613.5  5.775415E-15
4615.  5.696715E-15
4616.5  5.760310E-15
4618.  5.686604E-15
4619.5  5.743109E-15
4621.  5.721013E-15
4622.5  5.653401E-15
4624.  5.577366E-15
4625.5  5.550719E-15
4627.  5.505324E-15
4628.5  5.407576E-15
4630.  5.425760E-15
4631.5  5.388229E-15
4633.  5.470550E-15
4634.5  5.376044E-15
4636.  5.400273E-15
4637.5  5.397962E-15
4639.  5.430212E-15
4640.5  5.465002E-15
4642.  5.418892E-15
4643.5  5.324483E-15
4645.  5.451092E-15
4646.5  5.510887E-15
4648.  5.432223E-15
4649.5  5.435009E-15
4651.  5.418894E-15
4652.5  5.394839E-15
4654.  5.489555E-15
4655.5  5.455248E-15
4657.  5.420470E-15
4658.5  5.539538E-15
4660.  5.492335E-15
4661.5  5.457969E-15
4663.  5.317067E-15
4664.5  5.422364E-15
4666.  5.488778E-15
4667.5  5.437248E-15
4669.  5.293304E-15
4670.5  5.439001E-15
4672.  5.404861E-15
4673.5  5.389270E-15
4675.  5.484654E-15
4676.5  5.525820E-15
4678.  5.480157E-15
4679.5  5.439856E-15
4681.  5.375654E-15
4682.5  5.596319E-15
4684.  5.484252E-15
4685.5  5.499588E-15
4687.  5.495732E-15
4688.5  5.403092E-15
4690.  5.413002E-15
4691.5  5.419298E-15
4693.  5.452104E-15
4694.5  5.330889E-15
4696.  5.159397E-15
4697.5  5.226208E-15
4699.  5.120832E-15
4700.5  5.044220E-15
4702.  5.026840E-15
4703.5  5.048234E-15
4705.  5.053781E-15
4706.5  4.960375E-15
4708.  4.927626E-15
4709.5  4.694314E-15
4711.  4.781202E-15
4712.5  4.749599E-15
4714.  4.581871E-15
4715.5  4.529668E-15
4717.  4.560455E-15
4718.5  4.402017E-15
4720.  4.341559E-15
4721.5  4.341473E-15
4723.  4.296856E-15
4724.5  4.261286E-15
4726.  4.192482E-15
4727.5  4.178373E-15
4729.  4.190602E-15
4730.5  4.202773E-15
4732.  4.244505E-15
4733.5  4.138889E-15
4735.  4.072401E-15
4736.5  4.132146E-15
4738.  4.101126E-15
4739.5  4.037896E-15
4741.  4.073634E-15
4742.5  4.083428E-15
4744.  4.096271E-15
4745.5  4.176882E-15
4747.  4.091341E-15
4748.5  4.026322E-15
4750.  3.955391E-15
4751.5  3.994208E-15
4753.  3.908604E-15
4754.5  4.091674E-15
4756.  4.038141E-15
4757.5  4.071052E-15
4759.  4.026712E-15
4760.5  4.018412E-15
4762.  4.079791E-15
4763.5  4.049399E-15
4765.  4.080514E-15
4766.5  4.138677E-15
4768.  4.140972E-15
4769.5  4.226328E-15
4771.  4.150106E-15
4772.5  4.209597E-15
4774.  4.326591E-15
4775.5  4.236412E-15
4777.  4.235086E-15
4778.5  4.260129E-15
4780.  4.278346E-15
4781.5  4.295503E-15
4783.  4.258821E-15
4784.5  4.172334E-15
4786.  4.187099E-15
4787.5  4.127426E-15
4789.  4.226278E-15
4790.5  4.167030E-15
4792.  4.106987E-15
4793.5  4.169783E-15
4795.  4.110353E-15
4796.5  4.176141E-15
4798.  4.050132E-15
4799.5  4.097504E-15
4801.  4.032087E-15
4802.5  3.992777E-15
4804.  3.969829E-15
4805.5  3.964905E-15
4807.  3.918727E-15
4808.5  3.800489E-15
4810.  3.840532E-15
4811.5  3.784427E-15
4813.  3.675357E-15
4814.5  3.704470E-15
4816.  3.709837E-15
4817.5  3.647416E-15
4819.  3.639039E-15
4820.5  3.649322E-15
4822.  3.636120E-15
4823.5  3.564501E-15
4825.  3.573169E-15
4826.5  3.563749E-15
4828.  3.649270E-15
4829.5  3.690840E-15
4831.  3.627139E-15
4832.5  3.567814E-15
4834.  3.481987E-15
4835.5  3.491701E-15
4837.  3.564865E-15
4838.5  3.489443E-15
4840.  3.445724E-15
4841.5  3.516001E-15
4843.  3.562053E-15
4844.5  3.465591E-15
4846.  3.556483E-15
4847.5  3.595620E-15
4849.  3.560927E-15
4850.5  3.712033E-15
4852.  3.609690E-15
4853.5  3.650164E-15
4855.  3.704018E-15
4856.5  3.752064E-15
4858.  3.729368E-15
4859.5  3.728902E-15
4861.  3.835491E-15
4862.5  3.836148E-15
4864.  3.728121E-15
4865.5  3.845939E-15
4867.  3.931243E-15
4868.5  3.947891E-15
4870.  3.899653E-15
4871.5  3.866895E-15
4873.  3.875656E-15
4874.5  3.743299E-15
4876.  3.799304E-15
4877.5  3.880062E-15
4879.  3.742177E-15
4880.5  3.676538E-15
4882.  3.596814E-15
4883.5  3.684100E-15
4885.  3.607314E-15
4886.5  3.631769E-15
4888.  3.479923E-15
4889.5  3.399414E-15
4891.  3.346538E-15
4892.5  3.342431E-15
4894.  3.277575E-15
4895.5  3.226816E-15
4897.  3.281670E-15
4898.5  3.182343E-15
4900.  3.117291E-15
4901.5  3.005920E-15
4903.  2.952494E-15
4904.5  2.957530E-15
4906.  2.895008E-15
4907.5  2.912206E-15
4909.  2.845703E-15
4910.5  2.678851E-15
4912.  2.628553E-15
4913.5  2.627976E-15
4915.  2.613745E-15
4916.5  2.564341E-15
4918.  2.511241E-15
4919.5  2.480327E-15
4921.  2.558412E-15
4922.5  2.436643E-15
4924.  2.411337E-15
4925.5  2.434223E-15
4927.  2.443065E-15
4928.5  2.431659E-15
4930.  2.425796E-15
4931.5  2.419258E-15
4933.  2.408005E-15
4934.5  2.318066E-15
4936.  2.295787E-15
4937.5  2.381926E-15
4939.  2.345833E-15
4940.5  2.359615E-15
4942.  2.404688E-15
4943.5  2.373972E-15
4945.  2.331410E-15
4946.5  2.355416E-15
4948.  2.346732E-15
4949.5  2.378971E-15
4951.  2.337879E-15
4952.5  2.429765E-15
4954.  2.508392E-15
4955.5  2.476983E-15
4957.  2.486918E-15
4958.5  2.460745E-15
4960.  2.539234E-15
4961.5  2.499588E-15
4963.  2.564273E-15
4964.5  2.597808E-15
4966.  2.579105E-15
4967.5  2.640005E-15
4969.  2.615331E-15
4970.5  2.703979E-15
4972.  2.637852E-15
4973.5  2.749780E-15
4975.  2.812727E-15
4976.5  2.878392E-15
4978.  2.773738E-15
4979.5  2.830124E-15
4981.  2.809910E-15
4982.5  2.957136E-15
4984.  2.928636E-15
4985.5  2.877650E-15
4987.  2.958335E-15
4988.5  2.970952E-15
4990.  2.985849E-15
4991.5  3.076141E-15
4993.  3.172239E-15
4994.5  3.127162E-15
4996.  3.113630E-15
4997.5  3.194940E-15
4999.  3.250695E-15
5000.5  3.206748E-15
5002.  3.173835E-15
5003.5  3.252098E-15
5005.  3.239507E-15
5006.5  3.218816E-15
5008.  3.249619E-15
5009.5  3.306104E-15
5011.  3.223617E-15
5012.5  3.316789E-15
5014.  3.315902E-15
5015.5  3.415503E-15
5017.  3.436254E-15
5018.5  3.408283E-15
5020.  3.483111E-15
5021.5  3.437443E-15
5023.  3.352785E-15
5024.5  3.472153E-15
5026.  3.357031E-15
5027.5  3.408323E-15
5029.  3.407816E-15
5030.5  3.442204E-15
5032.  3.364789E-15
5033.5  3.411682E-15
5035.  3.423136E-15
5036.5  3.415200E-15
5038.  3.486928E-15
5039.5  3.449406E-15
5041.  3.352278E-15
5042.5  3.364967E-15
5044.  3.304799E-15
5045.5  3.299612E-15
5047.  3.302287E-15
5048.5  3.359656E-15
5050.  3.258033E-15
5051.5  3.294483E-15
5053.  3.320316E-15
5054.5  3.241295E-15
5056.  3.294479E-15
5057.5  3.251915E-15
5059.  3.179075E-15
5060.5  3.188736E-15
5062.  3.209359E-15
5063.5  3.236912E-15
5065.  3.181855E-15
5066.5  3.277658E-15
5068.  3.162491E-15
5069.5  3.208030E-15
5071.  3.324679E-15
5072.5  3.262260E-15
5074.  3.266547E-15
5075.5  3.308241E-15
5077.  3.361508E-15
5078.5  3.323464E-15
5080.  3.306317E-15
5081.5  3.308661E-15
5083.  3.366402E-15
5084.5  3.423678E-15
5086.  3.429783E-15
5087.5  3.473131E-15
5089.  3.465217E-15
5090.5  3.382099E-15
5092.  3.337110E-15
5093.5  3.299641E-15
5095.  3.369925E-15
5096.5  3.264149E-15
5098.  3.333847E-15
5099.5  3.316275E-15
5101.  3.384622E-15
5102.5  3.334162E-15
5104.  3.252601E-15
5105.5  3.242120E-15
5107.  3.381611E-15
5108.5  3.396571E-15
5110.  3.335702E-15
5111.5  3.338701E-15
5113.  3.348439E-15
5114.5  3.231785E-15
5116.  3.331600E-15
5117.5  3.398417E-15
5119.  3.299190E-15
5120.5  3.385001E-15
5122.  3.396184E-15
5123.5  3.349097E-15
5125.  3.306927E-15
5126.5  3.367460E-15
5128.  3.430073E-15
5129.5  3.460562E-15
5131.  3.496094E-15
5132.5  3.427859E-15
5134.  3.447892E-15
5135.5  3.546279E-15
5137.  3.472327E-15
5138.5  3.499881E-15
5140.  3.499480E-15
5141.5  3.633546E-15
5143.  3.579416E-15
5144.5  3.613219E-15
5146.  3.520692E-15
5147.5  3.526818E-15
5149.  3.610688E-15
5150.5  3.561622E-15
5152.  3.703015E-15
5153.5  3.661912E-15
5155.  3.675188E-15
5156.5  3.794323E-15
5158.  3.823704E-15
5159.5  3.740979E-15
5161.  3.673321E-15
5162.5  3.716900E-15
5164.  3.742306E-15
5165.5  3.742220E-15
5167.  3.782454E-15
5168.5  3.830062E-15
5170.  3.802595E-15
5171.5  3.729097E-15
5173.  3.817855E-15
5174.5  3.895535E-15
5176.  3.868209E-15
5177.5  3.763179E-15
5179.  3.883775E-15
5180.5  3.912211E-15
5182.  3.857994E-15
5183.5  3.827107E-15
5185.  3.911444E-15
5186.5  3.889279E-15
5188.  3.867372E-15
5189.5  3.904803E-15
5191.  3.928696E-15
5192.5  3.966250E-15
5194.  3.975693E-15
5195.5  3.961618E-15
5197.  3.876643E-15
5198.5  3.928827E-15
5200.  3.983956E-15
5201.5  3.956276E-15
5203.  3.992606E-15
5204.5  3.943144E-15
5206.  3.872491E-15
5207.5  3.921370E-15
5209.  3.942881E-15
5210.5  3.969558E-15
5212.  3.912024E-15
5213.5  3.943731E-15
5215.  3.925002E-15
5216.5  3.827775E-15
5218.  3.764751E-15
5219.5  3.894006E-15
5221.  3.838747E-15
5222.5  3.787937E-15
5224.  3.813032E-15
5225.5  3.783647E-15
5227.  3.837855E-15
5228.5  3.788699E-15
5230.  3.690260E-15
5231.5  3.759754E-15
5233.  3.726366E-15
5234.5  3.610199E-15
5236.  3.628081E-15
5237.5  3.653616E-15
5239.  3.707343E-15
5240.5  3.668202E-15
5242.  3.701163E-15
5243.5  3.594190E-15
5245.  3.579747E-15
5246.5  3.621758E-15
5248.  3.590531E-15
5249.5  3.665154E-15
5251.  3.680262E-15
5252.5  3.705589E-15
5254.  3.626093E-15
5255.5  3.659719E-15
5257.  3.691276E-15
5258.5  3.729762E-15
5260.  3.707503E-15
5261.5  3.673276E-15
5263.  3.671499E-15
5264.5  3.701124E-15
5266.  3.658356E-15
5267.5  3.691255E-15
5269.  3.734954E-15
5270.5  3.761439E-15
5272.  3.730513E-15
5273.5  3.761657E-15
5275.  3.832615E-15
5276.5  3.858992E-15
5278.  3.780258E-15
5279.5  3.889977E-15
5281.  3.960311E-15
5282.5  3.954251E-15
5284.  3.934945E-15
5285.5  4.010500E-15
5287.  4.073991E-15
5288.5  3.954617E-15
5290.  4.001825E-15
5291.5  3.994870E-15
5293.  3.965217E-15
5294.5  3.962960E-15
5296.  3.917662E-15
5297.5  3.947318E-15
5299.  4.046142E-15
5300.5  3.979686E-15
5302.  3.904104E-15
5303.5  3.864759E-15
5305.  3.851809E-15
5306.5  3.857237E-15
5308.  3.769909E-15
5309.5  3.736056E-15
5311.  3.638977E-15
5312.5  3.623566E-15
5314.  3.648635E-15
5315.5  3.499938E-15
5317.  3.557932E-15
5318.5  3.554169E-15
5320.  3.413158E-15
5321.5  3.457501E-15
5323.  3.422764E-15
5324.5  3.332800E-15
5326.  3.360961E-15
5327.5  3.312182E-15
5329.  3.227406E-15
5330.5  3.187807E-15
5332.  3.276027E-15
5333.5  3.243627E-15
5335.  3.134526E-15
5336.5  3.177087E-15
5338.  3.148995E-15
5339.5  3.122972E-15
5341.  3.084182E-15
5342.5  3.084131E-15
5344.  3.015223E-15
5345.5  3.024463E-15
5347.  2.981941E-15
5348.5  2.992158E-15
5350.  2.967656E-15
5351.5  3.074083E-15
5353.  2.967947E-15
5354.5  2.863517E-15
5356.  3.067371E-15
5357.5  3.049145E-15
5359.  2.932443E-15
5360.5  2.852553E-15
5362.  2.868625E-15
5363.5  2.846471E-15
5365.  2.858941E-15
5366.5  2.970455E-15
5368.  2.944264E-15
5369.5  2.812994E-15
5371.  2.882956E-15
5372.5  2.882014E-15
5374.  2.751522E-15
5375.5  2.735251E-15
5377.  2.927534E-15
5378.5  2.924682E-15
5380.  2.867543E-15
5381.5  2.894228E-15
5383.  2.770150E-15
5384.5  2.793395E-15
5386.  2.842845E-15
5387.5  2.701955E-15
5389.  2.715828E-15
5390.5  2.898053E-15
5392.  2.934378E-15
5393.5  2.720581E-15
5395.  2.838185E-15
5396.5  2.835737E-15
5398.  2.810074E-15
5399.5  2.810306E-15
5401.  2.783164E-15
5402.5  2.699768E-15
5404.  3.002709E-15
5405.5  2.885087E-15
5407.  2.822071E-15
5408.5  2.955407E-15
5410.  2.999859E-15
5411.5  2.887210E-15
5413.  2.842206E-15
5414.5  2.821732E-15
5416.  2.924498E-15
5417.5  2.887041E-15
5419.  2.758793E-15
5420.5  2.866814E-15
5422.  2.767928E-15
5423.5  2.867396E-15
5425.  2.872350E-15
5426.5  2.906160E-15
5428.  2.968792E-15
5429.5  2.816138E-15
5431.  2.926072E-15
5432.5  2.999474E-15
5434.  2.865787E-15
5435.5  2.937074E-15
5437.  2.979774E-15
5438.5  2.925403E-15
5440.  2.955139E-15
5441.5  2.900473E-15
5443.  3.023134E-15
5444.5  3.090386E-15
5446.  3.024218E-15
5447.5  3.009100E-15
5449.  2.850398E-15
5450.5  2.894025E-15
5452.  2.980962E-15
5453.5  2.989165E-15
5455.  2.914651E-15
5456.5  3.009007E-15
5458.  3.027481E-15
5459.5  2.891806E-15
5461.  2.952734E-15
5462.5  3.025964E-15
5464.  2.992702E-15
5465.5  2.904655E-15
5467.  2.988155E-15
5468.5  2.941157E-15
5470.  2.841590E-15
5471.5  2.897952E-15
5473.  2.907088E-15
5474.5  2.865481E-15
5476.  2.873767E-15
5477.5  3.004290E-15
5479.  2.881573E-15
5480.5  2.918440E-15
5482.  2.735780E-15
5483.5  2.869586E-15
5485.  2.697693E-15
5486.5  2.662099E-15
5488.  2.677493E-15
5489.5  2.802261E-15
5491.  2.779622E-15
5492.5  2.770831E-15
5494.  2.786558E-15
5495.5  2.725078E-15
5497.  2.701896E-15
5498.5  2.662389E-15
5500.  2.681677E-15
5501.5  2.687899E-15
5503.  2.648746E-15
5504.5  2.536194E-15
5506.  2.597144E-15
5507.5  2.556086E-15
5509.  2.487794E-15
5510.5  2.531460E-15
5512.  2.608386E-15
5513.5  2.565811E-15
5515.  2.459708E-15
5516.5  2.448924E-15
5518.  2.507075E-15
5519.5  2.506491E-15
5521.  2.532564E-15
5522.5  2.434018E-15
5524.  2.367031E-15
5525.5  2.458628E-15
5527.  2.426087E-15
5528.5  2.379055E-15
5530.  2.317174E-15
5531.5  2.324041E-15
5533.  2.319098E-15
5534.5  2.274040E-15
5536.  2.273413E-15
5537.5  2.219086E-15
5539.  2.242151E-15
5540.5  2.259612E-15
5542.  2.240083E-15
5543.5  2.242179E-15
5545.  2.231574E-15
5546.5  2.251907E-15
5548.  2.231237E-15
5549.5  2.223913E-15
5551.  2.213225E-15
5552.5  2.213928E-15
5554.  2.203197E-15
5555.5  2.252705E-15
5557.  2.243420E-15
5558.5  2.283381E-15
5560.  2.288356E-15
5561.5  2.258464E-15
5563.  2.229906E-15
5564.5  2.246009E-15
5566.  2.333553E-15
5567.5  2.374590E-15
5569.  2.369996E-15
5570.5  2.370623E-15
5572.  2.336525E-15
5573.5  2.292626E-15
5575.  2.367408E-15
5576.5  2.501375E-15
5578.  2.515639E-15
5579.5  2.576267E-15
5581.  2.607321E-15
5582.5  2.490129E-15
5584.  2.610172E-15
5585.5  2.565756E-15
5587.  2.533758E-15
5588.5  2.585260E-15
5590.  2.585200E-15
5591.5  2.699936E-15
5593.  2.776969E-15
5594.5  2.818432E-15
5596.  2.858164E-15
5597.5  2.884558E-15
5599.  2.878297E-15
5600.5  2.915149E-15
5602.  2.945336E-15
5603.5  2.928069E-15
5605.  2.972139E-15
5606.5  2.998772E-15
5608.  3.008144E-15
5609.5  3.002599E-15
5611.  3.144972E-15
5612.5  3.226818E-15
5614.  3.189631E-15
5615.5  3.153039E-15
5617.  3.168609E-15
5618.5  3.222831E-15
5620.  3.257927E-15
5621.5  3.301628E-15
5623.  3.311779E-15
5624.5  3.262988E-15
5626.  3.293638E-15
5627.5  3.275605E-15
5629.  3.288040E-15
5630.5  3.373805E-15
5632.  3.390671E-15
5633.5  3.356249E-15
5635.  3.379048E-15
5636.5  3.431398E-15
5638.  3.426068E-15
5639.5  3.465136E-15
5641.  3.519659E-15
5642.5  3.518301E-15
5644.  3.521407E-15
5645.5  3.497512E-15
5647.  3.458002E-15
5648.5  3.462699E-15
5650.  3.419392E-15
5651.5  3.427903E-15
5653.  3.474914E-15
5654.5  3.506394E-15
5656.  3.417169E-15
5657.5  3.429351E-15
5659.  3.498152E-15
5660.5  3.346706E-15
5662.  3.300864E-15
5663.5  3.369108E-15
5665.  3.432785E-15
5666.5  3.444436E-15
5668.  3.443920E-15
5669.5  3.352350E-15
5671.  3.446850E-15
5672.5  3.494892E-15
5674.  3.448695E-15
5675.5  3.319498E-15
5677.  3.329486E-15
5678.5  3.327623E-15
5680.  3.353098E-15
5681.5  3.395123E-15
5683.  3.419443E-15
5684.5  3.397162E-15
5686.  3.359314E-15
5687.5  3.415439E-15
5689.  3.486792E-15
5690.5  3.443786E-15
5692.  3.377542E-15
5693.5  3.423245E-15
5695.  3.424076E-15
5696.5  3.332583E-15
5698.  3.339452E-15
5699.5  3.394327E-15
5701.  3.408429E-15
5702.5  3.369095E-15
5704.  3.340347E-15
5705.5  3.364230E-15
5707.  3.341150E-15
5708.5  3.347862E-15
5710.  3.398307E-15
5711.5  3.400774E-15
5713.  3.364229E-15
5714.5  3.349258E-15
5716.  3.355876E-15
5717.5  3.347897E-15
5719.  3.357637E-15
5720.5  3.313980E-15
5722.  3.281702E-15
5723.5  3.325816E-15
5725.  3.295208E-15
5726.5  3.286451E-15
5728.  3.269665E-15
5729.5  3.269841E-15
5731.  3.243496E-15
5732.5  3.330980E-15
5734.  3.313688E-15
5735.5  3.285283E-15
5737.  3.309069E-15
5738.5  3.269374E-15
5740.  3.246470E-15
5741.5  3.310987E-15
5743.  3.354912E-15
5744.5  3.292426E-15
5746.  3.259474E-15
5747.5  3.313297E-15
5749.  3.347236E-15
5750.5  3.373123E-15
5752.  3.328422E-15
5753.5  3.272291E-15
5755.  3.286709E-15
5756.5  3.269170E-15
5758.  3.270597E-15
5759.5  3.356362E-15
5761.  3.391233E-15
5762.5  3.288015E-15
5764.  3.239388E-15
5765.5  3.287231E-15
5767.  3.295190E-15
5768.5  3.288330E-15
5770.  3.253342E-15
5771.5  3.266870E-15
5773.  3.220325E-15
5774.5  3.154455E-15
5776.  3.205617E-15
5777.5  3.212818E-15
5779.  3.196832E-15
5780.5  3.073088E-15
5782.  3.038496E-15
5783.5  3.049112E-15
5785.  3.067950E-15
5786.5  3.061347E-15
5788.  3.034618E-15
5789.5  2.951101E-15
5791.  2.985031E-15
5792.5  2.894805E-15
5794.  2.790401E-15
5795.5  2.779852E-15
5797.  2.817358E-15
5798.5  2.761707E-15
5800.  2.638078E-15
5801.5  2.652135E-15
5803.  2.661231E-15
5804.5  2.655209E-15
5806.  2.627758E-15
5807.5  2.549630E-15
5809.  2.461027E-15
5810.5  2.427028E-15
5812.  2.444531E-15
5813.5  2.441527E-15
5815.  2.403639E-15
5816.5  2.372312E-15
5818.  2.327654E-15
5819.5  2.248564E-15
5821.  2.183376E-15
5822.5  2.166210E-15
5824.  2.174042E-15
5825.5  2.156155E-15
5827.  2.161434E-15
5828.5  2.145228E-15
5830.  2.078252E-15
5831.5  2.047052E-15
5833.  2.046402E-15
5834.5  2.058540E-15
5836.  2.091510E-15
5837.5  2.058877E-15
5839.  2.031843E-15
5840.5  2.028473E-15
5842.  1.991030E-15
5843.5  2.050918E-15
5845.  2.101610E-15
5846.5  2.053304E-15
5848.  2.038907E-15
5849.5  2.085975E-15
5851.  2.068320E-15
5852.5  2.086824E-15
5854.  2.054700E-15
5855.5  2.032676E-15
5857.  2.060056E-15
5858.5  2.051806E-15
5860.  2.054242E-15
5861.5  2.073043E-15
5863.  2.102595E-15
5864.5  2.194328E-15
5866.  2.205120E-15
5867.5  2.179493E-15
5869.  2.207970E-15
5870.5  2.222984E-15
5872.  2.228260E-15
5873.5  2.232052E-15
5875.  2.248252E-15
5876.5  2.279228E-15
5878.  2.278332E-15
5879.5  2.310728E-15
5881.  2.366350E-15
5882.5  2.316582E-15
5884.  2.224970E-15
5885.5  2.226895E-15
5887.  2.274715E-15
5888.5  2.251522E-15
5890.  2.253735E-15
5891.5  2.277523E-15
5893.  2.358836E-15
5894.5  2.435673E-15
5896.  2.433275E-15
5897.5  2.352978E-15
5899.  2.504771E-15
5900.5  2.539947E-15
5902.  2.553347E-15
5903.5  2.592884E-15
5905.  2.701840E-15
5906.5  2.726475E-15
5908.  2.693706E-15
5909.5  2.771913E-15
5911.  2.754079E-15
5912.5  2.825906E-15
5914.  2.797810E-15
5915.5  2.777455E-15
5917.  2.841357E-15
5918.5  2.914641E-15
5920.  2.949561E-15
5921.5  2.938662E-15
5923.  2.925687E-15
5924.5  2.932586E-15
5926.  2.973907E-15
5927.5  3.026363E-15
5929.  3.059874E-15
5930.5  3.112166E-15
5932.  3.117571E-15
5933.5  3.087176E-15
5935.  3.069091E-15
5936.5  3.083931E-15
5938.  3.096637E-15
5939.5  3.101870E-15
5941.  3.124155E-15
5942.5  3.105187E-15
5944.  3.116383E-15
5945.5  3.111355E-15
5947.  3.157211E-15
5948.5  3.209346E-15
5950.  3.217120E-15
5951.5  3.252512E-15
5953.  3.292079E-15
5954.5  3.270289E-15
5956.  3.303297E-15
5957.5  3.343965E-15
5959.  3.296494E-15
5960.5  3.264279E-15
5962.  3.282654E-15
5963.5  3.285441E-15
5965.  3.304420E-15
5966.5  3.313046E-15
5968.  3.278851E-15
5969.5  3.316743E-15
5971.  3.373575E-15
5972.5  3.340824E-15
5974.  3.364124E-15
5975.5  3.366685E-15
5977.  3.343119E-15
5978.5  3.319903E-15
5980.  3.342159E-15
5981.5  3.353773E-15
5983.  3.353423E-15
5984.5  3.369061E-15
5986.  3.330893E-15
5987.5  3.297729E-15
5989.  3.329080E-15
5990.5  3.333557E-15
5992.  3.313310E-15
5993.5  3.322055E-15
5995.  3.352649E-15
5996.5  3.355525E-15
5998.  3.368146E-15
5999.5  3.379879E-15
6001.  3.357319E-15
6002.5  3.385642E-15
6004.  3.390429E-15
6005.5  3.374832E-15
6007.  3.379834E-15
6008.5  3.374774E-15
6010.  3.394844E-15
6011.5  3.439136E-15
6013.  3.437386E-15
6014.5  3.350203E-15
6016.  3.369458E-15
6017.5  3.379915E-15
6019.  3.371453E-15
6020.5  3.368631E-15
6022.  3.362480E-15
6023.5  3.379578E-15
6025.  3.328015E-15
6026.5  3.338456E-15
6028.  3.344420E-15
6029.5  3.361534E-15
6031.  3.392702E-15
6032.5  3.460951E-15
6034.  3.465175E-15
6035.5  3.379630E-15
6037.  3.371363E-15
6038.5  3.346259E-15
6040.  3.327891E-15
6041.5  3.330143E-15
6043.  3.343297E-15
6044.5  3.369377E-15
6046.  3.408007E-15
6047.5  3.394818E-15
6049.  3.304079E-15
6050.5  3.316968E-15
6052.  3.344248E-15
6053.5  3.341209E-15
6055.  3.375110E-15
6056.5  3.424088E-15
6058.  3.421179E-15
6059.5  3.373466E-15
6061.  3.331515E-15
6062.5  3.271911E-15
6064.  3.268421E-15
6065.5  3.283213E-15
6067.  3.312093E-15
6068.5  3.345695E-15
6070.  3.299800E-15
6071.5  3.318135E-15
6073.  3.283666E-15
6074.5  3.204804E-15
6076.  3.225055E-15
6077.5  3.225239E-15
6079.  3.206328E-15
6080.5  3.161568E-15
6082.  3.205997E-15
6083.5  3.174447E-15
6085.  3.146037E-15
6086.5  3.137363E-15
6088.  3.149832E-15
6089.5  3.074098E-15
6091.  3.112675E-15
6092.5  3.115744E-15
6094.  3.061027E-15
6095.5  3.033627E-15
6097.  3.057332E-15
6098.5  3.046575E-15
6100.  3.003280E-15
6101.5  2.975714E-15
6103.  2.950880E-15
6104.5  2.895380E-15
6106.  2.853729E-15
6107.5  2.859211E-15
6109.  2.815132E-15
6110.5  2.786988E-15
6112.  2.734491E-15
6113.5  2.687936E-15
6115.  2.633231E-15
6116.5  2.557119E-15
6118.  2.524756E-15
6119.5  2.511057E-15
6121.  2.497378E-15
6122.5  2.420886E-15
6124.  2.347120E-15
6125.5  2.335809E-15
6127.  2.262244E-15
6128.5  2.194728E-15
6130.  2.176451E-15
6131.5  2.162511E-15
6133.  2.082718E-15
6134.5  2.033784E-15
6136.  2.043222E-15
6137.5  1.979044E-15
6139.  1.942215E-15
6140.5  1.998064E-15
6142.  2.047879E-15
6143.5  2.045081E-15
6145.  1.917302E-15
6146.5  1.760081E-15
6148.  1.752078E-15
6149.5  1.723551E-15
6151.  1.630720E-15
6152.5  1.607740E-15
6154.  1.566213E-15
6155.5  1.516858E-15
6157.  1.504285E-15
6158.5  1.493195E-15
6160.  1.477423E-15
6161.5  1.421548E-15
6163.  1.370134E-15
6164.5  1.374795E-15
6166.  1.355603E-15
6167.5  1.315924E-15
6169.  1.310754E-15
6170.5  1.300910E-15
6172.  1.247282E-15
6173.5  1.220765E-15
6175.  1.233621E-15
6176.5  1.211141E-15
6178.  1.170933E-15
6179.5  1.135896E-15
6181.  1.107426E-15
6182.5  1.123588E-15
6184.  1.114622E-15
6185.5  1.066424E-15
6187.  1.079128E-15
6188.5  1.089043E-15
6190.  1.078123E-15
6191.5  1.079203E-15
6193.  1.045078E-15
6194.5  9.757756E-16
6196.  9.895494E-16
6197.5  9.757789E-16
6199.  9.904681E-16
6200.5  9.854141E-16
6202.  1.004914E-15
6203.5  1.036691E-15
6205.  9.888780E-16
6206.5  9.559660E-16
6208.  9.530676E-16
6209.5  9.660308E-16
6211.  9.612261E-16
6212.5  9.764038E-16
6214.  9.761361E-16
6215.5  9.485590E-16
6217.  9.705034E-16
6218.5  9.663853E-16
6220.  1.005948E-15
6221.5  1.046728E-15
6223.  1.011675E-15
6224.5  1.015051E-15
6226.  1.023741E-15
6227.5  1.019550E-15
6229.  1.009057E-15
6230.5  1.023953E-15
6232.  1.054132E-15
6233.5  1.062888E-15
6235.  1.077901E-15
6236.5  1.111645E-15
6238.  1.137466E-15
6239.5  1.130110E-15
6241.  1.128596E-15
6242.5  1.161556E-15
6244.  1.172503E-15
6245.5  1.187696E-15
6247.  1.222400E-15
6248.5  1.208228E-15
6250.  1.198283E-15
6251.5  1.266545E-15
6253.  1.309721E-15
6254.5  1.279597E-15
6256.  1.245097E-15
6257.5  1.314656E-15
6259.  1.370436E-15
6260.5  1.366034E-15
6262.  1.375732E-15
6263.5  1.392438E-15
6265.  1.413143E-15
6266.5  1.379820E-15
6268.  1.460194E-15
6269.5  1.476184E-15
6271.  1.466621E-15
6272.5  1.505739E-15
6274.  1.506549E-15
6275.5  1.465696E-15
6277.  1.509128E-15
6278.5  1.520747E-15
6280.  1.512114E-15
6281.5  1.532864E-15
6283.  1.579291E-15
6284.5  1.640567E-15
6286.  1.620003E-15
6287.5  1.649180E-15
6289.  1.715095E-15
6290.5  1.750696E-15
6292.  1.763855E-15
6293.5  1.783730E-15
6295.  1.794129E-15
6296.5  1.805224E-15
6298.  1.846807E-15
6299.5  1.879907E-15
6301.  1.889957E-15
6302.5  1.948039E-15
6304.  2.003541E-15
6305.5  1.982184E-15
6307.  2.018348E-15
6308.5  2.066883E-15
6310.  2.060611E-15
6311.5  2.098759E-15
6313.  2.087952E-15
6314.5  2.138200E-15
6316.  2.184722E-15
6317.5  2.218043E-15
6319.  2.256133E-15
6320.5  2.267003E-15
6322.  2.300903E-15
6323.5  2.295319E-15
6325.  2.336997E-15
6326.5  2.361396E-15
6328.  2.386057E-15
6329.5  2.388850E-15
6331.  2.426158E-15
6332.5  2.477721E-15
6334.  2.467209E-15
6335.5  2.474298E-15
6337.  2.519005E-15
6338.5  2.543614E-15
6340.  2.552788E-15
6341.5  2.553193E-15
6343.  2.549675E-15
6344.5  2.579088E-15
6346.  2.593318E-15
6347.5  2.579903E-15
6349.  2.594252E-15
6350.5  2.624568E-15
6352.  2.661692E-15
6353.5  2.697783E-15
6355.  2.697301E-15
6356.5  2.716416E-15
6358.  2.732621E-15
6359.5  2.738945E-15
6361.  2.775143E-15
6362.5  2.777863E-15
6364.  2.782458E-15
6365.5  2.809025E-15
6367.  2.792564E-15
6368.5  2.793442E-15
6370.  2.834590E-15
6371.5  2.854166E-15
6373.  2.862535E-15
6374.5  2.880410E-15
6376.  2.933546E-15
6377.5  2.918602E-15
6379.  2.921999E-15
6380.5  2.959231E-15
6382.  2.955656E-15
6383.5  2.963575E-15
6385.  2.987347E-15
6386.5  2.945175E-15
6388.  2.954018E-15
6389.5  2.967599E-15
6391.  3.002047E-15
6392.5  2.998603E-15
6394.  2.981535E-15
6395.5  2.991823E-15
6397.  3.052158E-15
6398.5  3.075930E-15
6400.  3.092820E-15
6401.5  3.080825E-15
6403.  3.063361E-15
6404.5  3.104487E-15
6406.  3.096957E-15
6407.5  3.084317E-15
6409.  3.108900E-15
6410.5  3.127114E-15
6412.  3.106467E-15
6413.5  3.126208E-15
6415.  3.142235E-15
6416.5  3.102933E-15
6418.  3.099986E-15
6419.5  3.124482E-15
6421.  3.129160E-15
6422.5  3.137270E-15
6424.  3.128737E-15
6425.5  3.112267E-15
6427.  3.111374E-15
6428.5  3.084039E-15
6430.  3.078255E-15
6431.5  3.122535E-15
6433.  3.099009E-15
6434.5  3.098710E-15
6436.  3.131019E-15
6437.5  3.132989E-15
6439.  3.131693E-15
6440.5  3.160116E-15
6442.  3.176551E-15
6443.5  3.056472E-15
6445.  3.118387E-15
6446.5  3.188350E-15
6448.  3.117524E-15
6449.5  3.116011E-15
6451.  3.126935E-15
6452.5  3.113850E-15
6454.  3.110013E-15
6455.5  3.103966E-15
6457.  3.134652E-15
6458.5  3.135976E-15
6460.  3.119488E-15
6461.5  3.129397E-15
6463.  3.116878E-15
6464.5  3.079680E-15
6466.  3.089900E-15
6467.5  3.096545E-15
6469.  3.121146E-15
6470.5  3.076534E-15
6472.  3.051431E-15
6473.5  3.057751E-15
6475.  3.038395E-15
6476.5  3.009165E-15
6478.  3.020363E-15
6479.5  3.038998E-15
6481.  3.017509E-15
6482.5  3.016175E-15
6484.  3.026989E-15
6485.5  3.012177E-15
6487.  3.006226E-15
6488.5  2.991907E-15
6490.  2.971145E-15
6491.5  2.982035E-15
6493.  2.955905E-15
6494.5  2.915797E-15
6496.  3.010410E-15
6497.5  3.039126E-15
6499.  3.007217E-15
6500.5  3.004624E-15
6502.  2.951906E-15
6503.5  2.926223E-15
6505.  2.989708E-15
6506.5  2.953847E-15
6508.  2.939871E-15
6509.5  2.958039E-15
6511.  2.912525E-15
6512.5  2.908208E-15
6514.  2.904901E-15
6515.5  2.891070E-15
6517.  2.880614E-15
6518.5  2.898141E-15
6520.  2.856589E-15
6521.5  2.900224E-15
6523.  2.897447E-15
6524.5  2.894957E-15
6526.  2.860169E-15
6527.5  2.876184E-15
6529.  2.865481E-15
6530.5  2.844496E-15
6532.  2.837759E-15
6533.5  2.830583E-15
6535.  2.828397E-15
6536.5  2.827514E-15
6538.  2.845044E-15
6539.5  2.842660E-15
6541.  2.831737E-15
6542.5  2.814801E-15
6544.  2.787514E-15
6545.5  2.778626E-15
6547.  2.760798E-15
6548.5  2.771143E-15
6550.  2.754658E-15
6551.5  2.715462E-15
6553.  2.671769E-15
6554.5  2.662787E-15
6556.  2.675631E-15
6557.5  2.654587E-15
6559.  2.641010E-15
6560.5  2.639385E-15
6562.  2.698200E-15
6563.5  2.704523E-15
6565.  2.611499E-15
6566.5  2.582717E-15
6568.  2.595323E-15
6569.5  2.607368E-15
6571.  2.595831E-15
6572.5  2.588465E-15
6574.  2.589577E-15
6575.5  2.598299E-15
6577.  2.559536E-15
6578.5  2.564412E-15
6580.  2.559653E-15
6581.5  2.577385E-15
6583.  2.557402E-15
6584.5  2.537120E-15
6586.  2.562592E-15
6587.5  2.542535E-15
6589.  2.530511E-15
6590.5  2.542793E-15
6592.  2.534295E-15
6593.5  2.500872E-15
6595.  2.484924E-15
6596.5  2.474470E-15
6598.  2.442782E-15
6599.5  2.443023E-15
6601.  2.486715E-15
6602.5  2.490705E-15
6604.  2.437018E-15
6605.5  2.422781E-15
6607.  2.448857E-15
6608.5  2.436916E-15
6610.  2.422402E-15
6611.5  2.411676E-15
6613.  2.415626E-15
6614.5  2.413847E-15
6616.  2.404854E-15
6617.5  2.412632E-15
6619.  2.396913E-15
6620.5  2.398767E-15
6622.  2.457580E-15
6623.5  2.414674E-15
6625.  2.328176E-15
6626.5  2.330047E-15
6628.  2.358262E-15
6629.5  2.356527E-15
6631.  2.350463E-15
6632.5  2.363442E-15
6634.  2.353397E-15
6635.5  2.336058E-15
6637.  2.373734E-15
6638.5  2.334701E-15
6640.  2.305597E-15
6641.5  2.317940E-15
6643.  2.321826E-15
6644.5  2.311105E-15
6646.  2.298626E-15
6647.5  2.273105E-15
6649.  2.252343E-15
6650.5  2.262569E-15
6652.  2.280784E-15
6653.5  2.256689E-15
6655.  2.216554E-15
6656.5  2.235956E-15
6658.  2.266321E-15
6659.5  2.265627E-15
6661.  2.245893E-15
6662.5  2.231082E-15
6664.  2.263911E-15
6665.5  2.282608E-15
6667.  2.253305E-15
6668.5  2.232894E-15
6670.  2.218067E-15
6671.5  2.226877E-15
6673.  2.227086E-15
6674.5  2.210431E-15
6676.  2.234118E-15
6677.5  2.260817E-15
6679.  2.232539E-15
6680.5  2.246594E-15
6682.  2.224753E-15
6683.5  2.205323E-15
6685.  2.237532E-15
6686.5  2.254990E-15
6688.  2.204605E-15
6689.5  2.201101E-15
6691.  2.191569E-15
6692.5  2.160063E-15
6694.  2.197254E-15
6695.5  2.194077E-15
6697.  2.155583E-15
6698.5  2.156147E-15
6700.  2.152160E-15
6701.5  2.155520E-15
6703.  2.098721E-15
6704.5  2.097272E-15
6706.  2.098869E-15
6707.5  2.074676E-15
6709.  2.074017E-15
6710.5  2.106994E-15
6712.  2.099260E-15
6713.5  2.100721E-15
6715.  2.127902E-15
6716.5  2.137372E-15
6718.  2.121955E-15
6719.5  2.127159E-15
6721.  2.130754E-15
6722.5  2.117380E-15
6724.  2.089980E-15
6725.5  2.052515E-15
6727.  2.061945E-15
6728.5  2.057807E-15
6730.  2.048321E-15
6731.5  2.099572E-15
6733.  2.080124E-15
6734.5  2.045477E-15
6736.  2.071857E-15
6737.5  2.066446E-15
6739.  2.066854E-15
6740.5  2.057271E-15
6742.  2.086361E-15
6743.5  2.068613E-15
6745.  2.030249E-15
6746.5  2.031692E-15
6748.  2.024593E-15
6749.5  2.016044E-15
6751.  2.070093E-15
6752.5  2.083490E-15
6754.  2.046354E-15
6755.5  2.013594E-15
6757.  2.040834E-15
6758.5  2.056724E-15
6760.  2.037147E-15
6761.5  1.996703E-15
6763.  1.990175E-15
6764.5  2.017820E-15
6766.  2.002867E-15
6767.5  2.013073E-15
6769.  2.025061E-15
6770.5  2.011351E-15
6772.  2.004438E-15
6773.5  2.003876E-15
6775.  1.980112E-15
6776.5  1.999738E-15
6778.  2.006737E-15
6779.5  1.988442E-15
6781.  1.968098E-15
6782.5  1.971189E-15
6784.  1.996834E-15
6785.5  1.988628E-15
6787.  1.980161E-15
6788.5  1.981633E-15
6790.  1.980025E-15
6791.5  1.965065E-15
6793.  1.957254E-15
6794.5  1.982942E-15
6796.  1.994506E-15
6797.5  1.976786E-15
6799.  1.961130E-15
6800.5  1.928908E-15
6802.  1.929560E-15
6803.5  1.962058E-15
6805.  1.990494E-15
6806.5  1.937506E-15
6808.  1.965861E-15
6809.5  1.939277E-15
6811.  1.937010E-15
6812.5  1.947645E-15
6814.  1.947933E-15
6815.5  1.949138E-15
6817.  1.922877E-15
6818.5  1.910450E-15
6820.  1.902535E-15
6821.5  1.900702E-15
6823.  1.874919E-15
6824.5  1.864474E-15
6826.  1.888561E-15
6827.5  1.867856E-15
6829.  1.860652E-15
6830.5  1.852547E-15
6832.  1.861617E-15
6833.5  1.857544E-15
6835.  1.830755E-15
6836.5  1.806047E-15
6838.  1.805487E-15
6839.5  1.822432E-15
6841.  1.810588E-15
6842.5  1.826127E-15
6844.  1.829613E-15
6845.5  1.777511E-15
6847.  1.745696E-15
6848.5  1.748430E-15
6850.  1.783161E-15
6851.5  1.797377E-15
6853.  1.803938E-15
6854.5  1.767174E-15
6856.  1.776419E-15
6857.5  1.752275E-15
6859.  1.778306E-15
6860.5  1.798363E-15
6862.  1.806076E-15
6863.5  1.798620E-15
6865.  1.811462E-15
6866.50000000001  1.800821E-15
6868.  1.761574E-15
6869.5  1.746449E-15
6871.  1.693178E-15
6872.5  1.725728E-15
6874.00000000001  1.731714E-15
6875.5  1.748435E-15
6877.  1.743381E-15
6878.5  1.740154E-15
6880.  1.746629E-15
6881.5  1.736898E-15
6883.  1.748705E-15
6884.5  1.766063E-15
6886.  1.768969E-15
6887.5  1.726420E-15
6889.  1.719430E-15
6890.5  1.736428E-15
6892.  1.740142E-15
6893.5  1.736110E-15
6895.  1.744337E-15
6896.5  1.734800E-15
6898.  1.725085E-15
6899.5  1.751013E-15
6901.  1.763342E-15
6902.5  1.752038E-15
6904.  1.755200E-15
6905.5  1.752282E-15
6907.  1.744577E-15
6908.5  1.750586E-15
6910.  1.754034E-15
6911.5  1.758399E-15
6913.  1.732186E-15
6914.5  1.698201E-15
6916.  1.739886E-15
6917.5  1.773088E-15
6919.  1.745699E-15
6920.5  1.685252E-15
6922.  1.689900E-15
6923.5  1.696212E-15
6925.  1.687729E-15
6926.5  1.683756E-15
6928.  1.696220E-15
6929.5  1.715658E-15
6931.  1.700993E-15
6932.5  1.716982E-15
6934.  1.786836E-15
6935.5  1.782629E-15
6937.  1.715540E-15
6938.5  1.701180E-15
6940.  1.683245E-15
6941.5  1.678548E-15
6943.  1.679438E-15
6944.5  1.716144E-15
6946.  1.704839E-15
6947.5  1.706467E-15
6949.  1.711457E-15
6950.5  1.734092E-15
6952.  1.741965E-15
6953.5  1.723031E-15
6955.  1.712447E-15
6956.5  1.714219E-15
6958.  1.716521E-15
6959.5  1.691109E-15
6961.  1.686722E-15
6962.5  1.710384E-15
6964.  1.710615E-15
6965.5  1.702328E-15
6967.  1.705768E-15
6968.5  1.688303E-15
6970.  1.686324E-15
6971.5  1.711054E-15
6973.  1.671232E-15
6974.5  1.663371E-15
6976.  1.662925E-15
6977.5  1.661095E-15
6979.  1.641052E-15
6980.5  1.651990E-15
6982.  1.660731E-15
6983.5  1.677157E-15
6985.  1.678187E-15
6986.50000000001  1.679788E-15
6988.  1.649853E-15
6989.5  1.662856E-15
6991.  1.700107E-15
6992.5  1.696587E-15
6994.  1.638733E-15
6995.5  1.641726E-15
6997.  1.652998E-15
6998.5  1.642824E-15
7000.  1.633876E-15
7001.5  1.613608E-15
7003.  1.630670E-15
7004.5  1.635498E-15
7006.  1.627815E-15
7007.5  1.658413E-15
7009.  1.638507E-15
7010.5  1.627061E-15
7012.  1.629081E-15
7013.5  1.584433E-15
7015.  1.529560E-15
7016.5  1.574544E-15
7018.  1.606035E-15
7019.5  1.607047E-15
7021.  1.622782E-15
7022.5  1.595175E-15
7024.  1.575002E-15
7025.5  1.591968E-15
7027.  1.587116E-15
7028.5  1.565717E-15
7030.  1.566081E-15
7031.5  1.584363E-15
7033.  1.577447E-15
7034.5  1.575065E-15
7036.  1.571816E-15
7037.5  1.546253E-15
7039.  1.549378E-15
7040.5  1.526686E-15
7042.  1.568110E-15
7043.5  1.586607E-15
7045.  1.574285E-15
7046.5  1.583587E-15
7048.  1.590571E-15
7049.5  1.549241E-15
7051.  1.559503E-15
7052.5  1.542399E-15
7054.  1.569573E-15
7055.5  1.577315E-15
7057.  1.561277E-15
7058.5  1.577111E-15
7060.  1.630074E-15
7061.5  1.588117E-15
7063.  1.534923E-15
7064.5  1.572213E-15
7066.  1.595400E-15
7067.5  1.579453E-15
7069.  1.586881E-15
7070.5  1.575311E-15
7072.  1.568959E-15
7073.5  1.583777E-15
7075.  1.597807E-15
7076.5  1.584217E-15
7078.  1.550493E-15
7079.5  1.532564E-15
7081.  1.508993E-15
7082.5  1.535667E-15
7084.  1.569641E-15
7085.5  1.551232E-15
7087.  1.564369E-15
7088.5  1.578155E-15
7090.  1.586346E-15
7091.5  1.613518E-15
7093.  1.570607E-15
7094.5  1.538031E-15
7096.  1.590200E-15
7097.5  1.593529E-15
7099.  1.542942E-15
7100.5  1.562850E-15
7102.  1.590677E-15
7103.5  1.555846E-15
7105.  1.576029E-15
7106.5  1.570702E-15
7108.  1.551243E-15
7109.5  1.537920E-15
7111.  1.536756E-15
7112.5  1.524127E-15
7114.  1.495215E-15
7115.5  1.519929E-15
7117.  1.554047E-15
7118.5  1.565055E-15
7120.  1.524652E-15
7121.5  1.527430E-15
7123.  1.541583E-15
7124.5  1.551671E-15
7126.  1.537208E-15
7127.5  1.578272E-15
7129.  1.551405E-15
7130.5  1.538592E-15
7132.  1.564196E-15
7133.5  1.565488E-15
7135.  1.553597E-15
7136.5  1.538650E-15
7138.  1.516919E-15
7139.5  1.526131E-15
7141.  1.533015E-15
7142.5  1.547478E-15
7144.  1.541410E-15
7145.5  1.524656E-15
7147.  1.543795E-15
7148.5  1.531389E-15
7150.  1.516875E-15
7151.5  1.534431E-15
7153.  1.545235E-15
7154.5  1.542175E-15
7156.  1.494740E-15
7157.5  1.490974E-15
7159.  1.511027E-15
7160.5  1.496787E-15
7162.  1.505696E-15
7163.5  1.521297E-15
7165.  1.517953E-15
7166.5  1.516886E-15
7168.  1.499095E-15
7169.5  1.497071E-15
7171.  1.484016E-15
7172.5  1.490366E-15
7174.  1.482539E-15
7175.5  1.474060E-15
7177.  1.486142E-15
7178.5  1.488111E-15
7180.  1.483670E-15
7181.5  1.499861E-15
7183.  1.524932E-15
7184.5  1.519225E-15
7186.  1.483517E-15
7187.5  1.486131E-15
7189.  1.507489E-15
7190.5  1.498201E-15
7192.  1.455588E-15
7193.5  1.482538E-15
7195.  1.530453E-15
7196.5  1.515223E-15
7198.  1.497170E-15
7199.5  1.523129E-15
7201.  1.520100E-15
7202.5  1.497303E-15
7204.  1.508214E-15
7205.5  1.523256E-15
7207.  1.519636E-15
7208.5  1.488542E-15
7210.  1.478817E-15
7211.5  1.504799E-15
7213.  1.501008E-15
7214.5  1.500730E-15
7216.  1.497671E-15
7217.5  1.509556E-15
7219.  1.509538E-15
7220.5  1.499942E-15
7222.  1.480250E-15
7223.5  1.462042E-15
7225.  1.498859E-15
7226.5  1.511757E-15
7228.  1.475886E-15
7229.5  1.466395E-15
7231.  1.438921E-15
7232.5  1.454299E-15
7234.  1.501584E-15
7235.5  1.455399E-15
7237.  1.490359E-15
7238.5  1.491637E-15
7240.  1.502527E-15
7241.5  1.460183E-15
7243.  1.518641E-15
7244.5  1.505744E-15
7246.  1.532265E-15
7247.5  1.508157E-15
7249.  1.483126E-15
7250.5  1.483832E-15
7252.  1.478379E-15
7253.5  1.476443E-15
7255.  1.465230E-15
7256.5  1.471400E-15
7258.  1.463237E-15
7259.5  1.454191E-15
7261.  1.464119E-15
7262.5  1.465975E-15
7264.  1.471333E-15
7265.5  1.461022E-15
7267.  1.453743E-15
7268.5  1.464684E-15
7270.  1.462804E-15
7271.5  1.491602E-15
7273.  1.495298E-15
7274.5  1.431808E-15
7276.  1.435270E-15
7277.5  1.466952E-15
7279.  1.441956E-15
7280.5  1.458642E-15
7282.  1.469253E-15
7283.5  1.451951E-15
7285.  1.439111E-15
7286.5  1.418872E-15
7288.  1.425709E-15
7289.5  1.450560E-15
7291.  1.415184E-15
7292.5  1.407824E-15
7294.  1.384248E-15
7295.5  1.392322E-15
7297.  1.449323E-15
7298.5  1.441766E-15
7300.  1.472114E-15
7301.5  1.462668E-15
7303.  1.436119E-15
7304.5  1.388919E-15
7306.  1.422836E-15
7307.5  1.436160E-15
7309.  1.404646E-15
7310.5  1.418284E-15
7312.  1.402043E-15
7313.5  1.374227E-15
7315.  1.402631E-15
7316.5  1.396923E-15
7318.  1.418204E-15
7319.5  1.432008E-15
7321.  1.410983E-15
7322.5  1.420944E-15
7324.  1.433196E-15
7325.5  1.443935E-15
7327.  1.422893E-15
7328.5  1.384017E-15
7330.  1.393989E-15
7331.5  1.391701E-15
7333.  1.367637E-15
7334.5  1.362601E-15
7336.  1.374470E-15
7337.5  1.370442E-15
7339.  1.338665E-15
7340.5  1.346335E-15
7342.  1.394307E-15
7343.5  1.416915E-15
7345.  1.370355E-15
7346.5  1.350637E-15
7348.  1.356283E-15
7349.5  1.366980E-15
7351.  1.338977E-15
7352.5  1.334285E-15
7354.  1.363446E-15
7355.5  1.384388E-15
7357.  1.362375E-15
7358.5  1.351607E-15
7360.  1.358830E-15
7361.50000000001  1.311686E-15
7363.  1.339659E-15
7364.5  1.371215E-15
7366.  1.340274E-15
7367.5  1.290734E-15
7369.  1.312935E-15
7370.5  1.337883E-15
7372.  1.333508E-15
7373.5  1.330188E-15
7375.  1.333308E-15
7376.5  1.329144E-15
7378.  1.328242E-15
7379.5  1.316556E-15
7381.  1.335874E-15
7382.5  1.343728E-15
7384.  1.340043E-15
7385.5  1.332223E-15
7387.  1.315254E-15
7388.5  1.307575E-15
7390.  1.332712E-15
7391.5  1.328067E-15
7393.  1.274067E-15
7394.5  1.304132E-15
7396.  1.354249E-15
7397.5  1.390671E-15
7399.  1.367808E-15
7400.5  1.318176E-15
7402.  1.301867E-15
7403.5  1.298805E-15
7405.  1.352802E-15
7406.5  1.301977E-15
7408.  1.286347E-15
7409.5  1.312224E-15
7411.  1.337933E-15
7412.5  1.293844E-15
7414.  1.299406E-15
7415.5  1.272496E-15
7417.  1.307782E-15
7418.5  1.269915E-15
7420.  1.269296E-15
7421.5  1.285442E-15
7423.  1.256027E-15
7424.5  1.267623E-15
7426.  1.273581E-15
7427.5  1.262289E-15
7429.  1.210263E-15
7430.50000000001  1.212295E-15
7432.  1.237236E-15
7433.5  1.251454E-15
7435.  1.226694E-15
7436.5  1.212189E-15
7438.  1.234878E-15
7439.5  1.248091E-15
7441.  1.246054E-15
7442.5  1.229963E-15
7444.  1.202606E-15
7445.5  1.194637E-15
7447.  1.233976E-15
7448.5  1.258274E-15
7450.  1.219721E-15
7451.5  1.206763E-15
7453.  1.236217E-15
7454.5  1.227126E-15
7456.  1.193139E-15
7457.5  1.186735E-15
7459.  1.180274E-15
7460.5  1.159474E-15
7462.  1.193888E-15
7463.5  1.174035E-15
7465.  1.187425E-15
7466.5  1.190099E-15
7468.  1.172691E-15
7469.5  1.145482E-15
7471.  1.148332E-15
7472.5  1.188688E-15
7474.  1.145021E-15
7475.5  1.154184E-15
7477.  1.111076E-15
7478.5  1.107040E-15
7480.  1.123311E-15
7481.5  1.107370E-15
7483.  1.098150E-15
7484.5  1.104540E-15
7486.  1.091263E-15
7487.5  1.058094E-15
7489.  1.094686E-15
7490.5  1.078162E-15
7492.  1.037794E-15
7493.5  1.050894E-15
7495.  1.074361E-15
7496.5  1.050257E-15
7498.  1.027762E-15
7499.5  1.034820E-15
7501.  1.012282E-15
7502.5  1.006340E-15
7504.  1.008149E-15
7505.5  9.921778E-16
7507.  9.638129E-16
7508.5  9.381631E-16
7510.  9.344339E-16
7511.5  9.298797E-16
7513.  9.235274E-16
7514.5  9.258846E-16
7516.  9.281170E-16
7517.5  9.038539E-16
7519.  8.788675E-16
7520.5  8.909605E-16
7522.00000000001  8.850790E-16
7523.5  8.558668E-16
7525.  8.491237E-16
7526.5  8.551253E-16
7528.  8.268710E-16
7529.50000000001  8.049461E-16
7531.  7.983352E-16
7532.5  8.022798E-16
7534.  8.042332E-16
7535.5  8.104576E-16
7537.  8.045455E-16
7538.5  7.903353E-16
7540.  7.925807E-16
7541.5  7.668888E-16
7543.  7.652081E-16
7544.5  7.672129E-16
7546.  7.478697E-16
7547.5  7.760957E-16
7549.  7.297979E-16
7550.50000000001  7.223672E-16
7552.00000000001  7.349858E-16
7553.5  7.009142E-16
7555.  6.790966E-16
7556.5  6.811188E-16
7558.00000000001  6.544484E-16
7559.50000000001  6.592166E-16
7561.  6.664031E-16
7562.5  6.529092E-16
7564.  6.498904E-16
7565.50000000001  6.589676E-16
7567.00000000001  6.645833E-16
7568.5  6.674816E-16
7570.  6.529018E-16
7571.5  6.367569E-16
7573.00000000001  6.309199E-16
7574.5  6.329182E-16
7576.  6.475532E-16
7577.5  6.351477E-16
7579.  6.404866E-16
7580.5  6.170232E-16
7582.  6.141336E-16
7583.5  6.503063E-16
7585.  6.300524E-16
7586.5  6.114489E-16
7588.  6.256372E-16
7589.5  6.581712E-16
7591.  6.453299E-16
7592.50000000001  6.245728E-16
7594.  6.768097E-16
7595.5  6.967603E-16
7597.  6.730074E-16
7598.5  6.750440E-16
7600.  6.671774E-16
7601.5  6.331578E-16
7603.  6.724673E-16
7604.5  6.580069E-16
7606.  6.204592E-16
7607.5  5.640504E-16
7609.  6.349640E-16
7610.5  6.524652E-16
7612.  6.859741E-16
7613.5  7.447070E-16
7615.  7.688719E-16
7616.5  7.698870E-16
7618.  7.796485E-16
7619.5  7.955309E-16
7621.00000000001  7.788936E-16
7622.5  7.435027E-16
7624.  7.734903E-16
7625.5  8.394291E-16
7627.  8.232423E-16
7628.50000000001  7.902749E-16
7630.  7.967622E-16
7631.5  7.896658E-16
7633.  7.958038E-16
7634.5  8.007412E-16
7636.00000000001  7.762626E-16
7637.5  7.877398E-16
7639.  8.206134E-16
7640.50000000001  8.112875E-16
7642.00000000001  8.292880E-16
7643.5  8.355929E-16
7645.  7.959507E-16
7646.5  8.121762E-16
7648.00000000001  8.660614E-16
7649.5  8.520245E-16
7651.  8.457387E-16
7652.5  8.100585E-16
7654.  7.868420E-16
7655.5  8.282764E-16
7657.  8.193484E-16
7658.5  8.454643E-16
7660.  8.585646E-16
7661.5  8.382134E-16
7663.00000000001  8.401748E-16
7664.5  8.338342E-16
7666.  8.247765E-16
7667.5  8.509739E-16
7669.  8.399986E-16
7670.50000000001  8.375365E-16
7672.  8.478964E-16
7673.5  8.545730E-16
7675.  8.462919E-16
7676.5  8.574985E-16
7678.00000000001  8.791722E-16
7679.5  8.817402E-16
7681.  8.536509E-16
7682.5  8.399103E-16
7684.  8.609975E-16
7685.50000000001  8.645586E-16
7687.  8.762687E-16
7688.5  9.034665E-16
7690.  9.029648E-16
7691.5  8.993729E-16
7693.  9.114304E-16
7694.5  9.326014E-16
7696.  9.408790E-16
7697.5  9.320586E-16
7699.  9.451079E-16
7700.5  9.468133E-16
7702.  9.408268E-16
7703.5  9.568363E-16
7705.  9.749734E-16
7706.5  1.007697E-15
7708.  1.022052E-15
7709.5  1.026939E-15
7711.  1.027526E-15
7712.5  1.034370E-15
7714.  1.060942E-15
7715.5  1.032586E-15
7717.  1.029996E-15
7718.5  1.103603E-15
7720.  1.081136E-15
7721.5  1.059732E-15
7723.  1.075897E-15
7724.5  1.045666E-15
7726.  1.071152E-15
7727.5  1.111748E-15
7729.  1.100957E-15
7730.5  1.106395E-15
7732.  1.115853E-15
7733.50000000001  1.123301E-15
7735.00000000001  1.151889E-15
7736.5  1.154350E-15
7738.  1.134835E-15
7739.5  1.136513E-15
7741.00000000001  1.171738E-15
7742.50000000001  1.182511E-15
7744.  1.173541E-15
7745.5  1.165850E-15
7747.  1.146632E-15
7748.50000000001  1.185141E-15
7750.  1.262866E-15
7751.5  1.267591E-15
7753.  1.232993E-15
7754.5  1.255150E-15
7756.  1.273707E-15
7757.5  1.242471E-15
7759.  1.260476E-15
7760.50000000001  1.259032E-15
7762.  1.218634E-15
7763.5  1.224138E-15
7765.  1.252436E-15
7766.5  1.274244E-15
7768.  1.289344E-15
7769.5  1.316629E-15
7771.  1.321085E-15
7772.5  1.293768E-15
7774.  1.310380E-15
7775.5  1.342373E-15
7777.  1.327834E-15
7778.5  1.295667E-15
7780.  1.348346E-15
7781.5  1.373965E-15
7783.00000000001  1.342950E-15
7784.50000000001  1.340726E-15
7786.  1.331639E-15
7787.5  1.303163E-15
7789.  1.326468E-15
7790.50000000001  1.315738E-15
7792.00000000001  1.299755E-15
7793.5  1.320455E-15
7795.  1.330454E-15
7796.5  1.356074E-15
7798.00000000001  1.369287E-15
7799.5  1.360440E-15
7801.  1.354033E-15
7802.5  1.334356E-15
7804.00000000001  1.352018E-15
7805.5  1.341455E-15
7807.  1.348266E-15
7808.5  1.388476E-15
7810.  1.366731E-15
7811.50000000001  1.358313E-15
7813.  1.373501E-15
7814.5  1.351547E-15
7816.  1.343854E-15
7817.5  1.346088E-15
7819.  1.363251E-15
7820.5  1.396527E-15
7822.  1.381882E-15
7823.5  1.379945E-15
7825.  1.399922E-15
7826.5  1.379254E-15
7828.00000000001  1.377097E-15
7829.50000000001  1.387777E-15
7831.  1.377733E-15
7832.5  1.397496E-15
7834.  1.407344E-15
7835.50000000001  1.380232E-15
7837.  1.395332E-15
7838.5  1.390949E-15
7840.  1.385705E-15
7841.5  1.410213E-15
7843.  1.439788E-15
7844.5  1.453010E-15
7846.  1.431316E-15
7847.5  1.402395E-15
7849.  1.405330E-15
7850.5  1.410289E-15
7852.  1.430543E-15
7853.50000000001  1.428624E-15
7855.  1.409334E-15
7856.5  1.454040E-15
7858.  1.463221E-15
7859.5  1.435095E-15
7861.00000000001  1.418358E-15
7862.5  1.442977E-15
7864.  1.443568E-15
7865.5  1.470484E-15
7867.  1.479824E-15
7868.5  1.434171E-15
7870.  1.443725E-15
7871.5  1.465897E-15
7873.  1.470554E-15
7874.5  1.463654E-15
7876.  1.442566E-15
7877.5  1.444011E-15
7879.  1.415798E-15
7880.5  1.458204E-15
7882.  1.503395E-15
7883.5  1.456685E-15
7885.  1.469628E-15
7886.5  1.470269E-15
7888.  1.465690E-15
7889.5  1.482770E-15
7891.  1.533601E-15
7892.5  1.487332E-15
7894.  1.486674E-15
7895.5  1.513055E-15
7897.  1.481114E-15
7898.5  1.430588E-15
7900.  1.480078E-15
7901.5  1.481781E-15
7903.00000000001  1.481041E-15
7904.5  1.456861E-15
7906.  1.519035E-15
7907.5  1.509846E-15
7909.  1.499268E-15
7910.50000000001  1.453140E-15
7912.  1.496192E-15
7913.5  1.505753E-15
7915.  1.530538E-15
7916.5  1.493148E-15
7918.  1.513878E-15
7919.5  1.503881E-15
7921.  1.482637E-15
7922.5  1.494052E-15
7924.00000000001  1.482691E-15
7925.50000000001  1.467302E-15
7927.  1.455435E-15
7928.5  1.466593E-15
7930.  1.492318E-15
7931.5  1.482604E-15
7933.00000000001  1.491969E-15
7934.5  1.504303E-15
7936.  1.472284E-15
7937.5  1.464974E-15
7939.  1.469922E-15
7940.50000000001  1.472561E-15
7942.  1.487694E-15
7943.5  1.516082E-15
7945.  1.535263E-15
7946.5  1.507755E-15
7948.00000000001  1.475548E-15
7949.5  1.520496E-15
7951.  1.513948E-15
7952.5  1.471197E-15
7954.  1.486200E-15
7955.5  1.477499E-15
7957.  1.444141E-15
7958.5  1.480686E-15
7960.  1.518504E-15
7961.5  1.494305E-15
7963.  1.466001E-15
7964.5  1.475659E-15
7966.  1.462843E-15
7967.50000000001  1.470454E-15
7969.  1.471223E-15
7970.5  1.425634E-15
7972.  1.456050E-15
7973.50000000001  1.497302E-15
7975.  1.460910E-15
7976.5  1.471067E-15
7978.  1.498609E-15
7979.5  1.485935E-15
7981.  1.453965E-15
7982.5  1.424002E-15
7984.  1.426698E-15
7985.5  1.458052E-15
7987.  1.464780E-15
7988.5  1.481402E-15
7990.  1.455945E-15
7991.5  1.418143E-15
7993.  1.442162E-15
7994.50000000001  1.450766E-15
7996.  1.418925E-15
7997.5  1.390759E-15
7999.  1.365469E-15
8000.5  1.340032E-15
8002.  1.368416E-15
8003.5  1.364398E-15
8005.  1.347801E-15
8006.5  1.354966E-15
8008.  1.359332E-15
8009.5  1.379467E-15
8011.  1.354895E-15
8012.5  1.330385E-15
8014.  1.308629E-15
8015.50000000001  1.317736E-15
8017.00000000001  1.311976E-15
8018.5  1.299588E-15
8020.  1.325988E-15
8021.5  1.390498E-15
8023.00000000001  1.370404E-15
8024.5  1.336209E-15
8026.  1.347068E-15
8027.5  1.369329E-15
8029.  1.303069E-15
8030.5  1.307697E-15
8032.  1.325526E-15
8033.5  1.290853E-15
8035.  1.278514E-15
8036.5  1.307876E-15
8038.  1.321214E-15
8039.5  1.308314E-15
8041.  1.308588E-15
8042.5  1.285270E-15
8044.  1.287822E-15
8045.5  1.337498E-15
8047.  1.343239E-15
8048.5  1.313815E-15
8050.  1.319984E-15
8051.5  1.323350E-15
8053.  1.309749E-15
8054.5  1.319137E-15
8056.  1.325597E-15
8057.5  1.314074E-15
8059.  1.317594E-15
8060.5  1.318866E-15
8062.  1.287330E-15
8063.5  1.281351E-15
8065.  1.302547E-15
8066.5  1.301289E-15
8068.  1.294044E-15
8069.5  1.281312E-15
8071.  1.278849E-15
8072.5  1.297363E-15
8074.  1.290162E-15
8075.5  1.279782E-15
8077.  1.289035E-15
8078.5  1.265440E-15
8080.  1.242461E-15
8081.5  1.280567E-15
8083.  1.294965E-15
8084.5  1.295685E-15
8086.  1.278931E-15
8087.5  1.258552E-15
8089.  1.270206E-15
8090.5  1.267201E-15
8092.  1.282223E-15
8093.5  1.279036E-15
8095.  1.266588E-15
8096.5  1.244158E-15
8098.  1.240458E-15
8099.5  1.264159E-15
8101.  1.267047E-15
8102.5  1.275447E-15
8104.  1.284140E-15
8105.5  1.275493E-15
8107.  1.250613E-15
8108.5  1.226841E-15
8110.  1.234924E-15
8111.5  1.260738E-15
8113.  1.251814E-15
8114.5  1.225230E-15
8116.  1.235106E-15
8117.5  1.261979E-15
8119.  1.260916E-15
8120.5  1.245038E-15
8122.  1.242388E-15
8123.5  1.238156E-15
8125.  1.235524E-15
8126.5  1.227323E-15
8128.  1.209475E-15
8129.5  1.190879E-15
8131.  1.182158E-15
8132.5  1.181826E-15
8134.  1.176526E-15
8135.5  1.193676E-15
8137.  1.173008E-15
8138.5  1.164743E-15
8140.  1.181561E-15
8141.5  1.186255E-15
8143.  1.165212E-15
8144.5  1.158530E-15
8146.  1.121596E-15
8147.5  1.118543E-15
8149.  1.130598E-15
8150.5  1.110464E-15
8152.  1.113666E-15
8153.5  1.100723E-15
8155.00000000001  1.113522E-15
8156.5  1.130750E-15
8158.00000000001  1.099497E-15
8159.50000000001  1.078784E-15
8161.00000000001  1.104851E-15
8162.5  1.093603E-15
8164.  1.074162E-15
8165.50000000001  1.072832E-15
8167.00000000001  1.065208E-15
8168.5  1.066837E-15
8170.  1.062851E-15
8171.5  1.052940E-15
8173.00000000001  1.046047E-15
8174.5  1.031200E-15
8176.  1.036334E-15
8177.5  1.064415E-15
8179.  1.080039E-15
8180.5  1.075265E-15
8182.  1.054050E-15
8183.5  1.028706E-15
8185.  1.022955E-15
8186.5  1.028990E-15
8188.  1.020315E-15
8189.5  1.065143E-15
8191.  1.064343E-15
8192.5  1.040535E-15
8194.  1.008195E-15
8195.5  9.455727E-16
8197.  9.415666E-16
8198.5  9.751049E-16
8200.  9.922483E-16
8201.5  9.850024E-16
8203.00000000001  9.755070E-16
8204.50000000001  9.433606E-16
8206.  9.021231E-16
8207.5  8.798953E-16
8209.  8.948799E-16
8210.50000000001  8.304755E-16
8212.  8.498610E-16
8213.5  8.768323E-16
8215.  8.750967E-16
8216.5  8.679844E-16
8218.  8.442391E-16
8219.5  8.231394E-16
8221.  8.273915E-16
8222.5  8.442404E-16
8224.  8.455780E-16
8225.5  8.148773E-16
8227.  7.801117E-16
8228.5  8.049888E-16
8230.  8.044605E-16
8231.5  7.696029E-16
8233.  7.658473E-16
8234.5  7.741612E-16
8236.  7.830853E-16
8237.5  7.962868E-16
8239.  7.925739E-16
8240.5  7.651516E-16
8242.  7.562666E-16
8243.5  7.530836E-16
8245.  7.393600E-16
8246.5  7.317424E-16
8248.  7.226373E-16
8249.5  7.352681E-16
8251.  7.367971E-16
8252.5  7.399905E-16
8254.  7.299948E-16
8255.5  7.427277E-16
8257.  6.930591E-16
8258.5  6.519721E-16
8260.  6.779744E-16
8261.5  6.917988E-16
8263.  7.042318E-16
8264.5  6.720918E-16
8266.  6.631365E-16
8267.5  6.936736E-16
8269.  7.035659E-16
8270.5  7.153831E-16
8272.  6.772214E-16
8273.5  6.482781E-16
8275.  7.099904E-16
8276.5  6.799307E-16
8278.  6.021810E-16
8279.5  5.916891E-16
8281.  6.481491E-16
8282.5  6.303435E-16
8284.  6.300226E-16
8285.5  6.331431E-16
8287.  6.340142E-16
8288.5  6.412582E-16
8290.  6.668752E-16
8291.5  6.525003E-16
8293.  6.117261E-16
8294.5  6.039036E-16
8296.  5.898931E-16
8297.5  5.910383E-16
8299.  6.061728E-16
8300.5  6.170622E-16
8302.  6.201897E-16
8303.5  5.715968E-16
8305.  5.822888E-16
8306.5  6.106315E-16
8308.  5.837127E-16
8309.5  5.731989E-16
8311.  5.672906E-16
8312.5  5.441977E-16
8314.  5.593926E-16
8315.5  5.601256E-16
8317.  5.470999E-16
8318.5  5.456274E-16
8320.  5.316527E-16
8321.5  5.302486E-16
8323.  5.449821E-16
8324.5  5.594675E-16
8326.  5.494888E-16
8327.5  5.387682E-16
8329.  5.298074E-16
8330.5  5.578179E-16
8332.  5.488288E-16
8333.5  5.622465E-16
8335.  5.555040E-16
8336.5  5.465284E-16
8338.  5.431878E-16
8339.5  5.554516E-16
8341.  5.544377E-16
8342.50000000001  5.524740E-16
8344.  5.925463E-16
8345.50000000001  5.818539E-16
8347.00000000001  5.488672E-16
8348.50000000001  5.735870E-16
8350.  5.913872E-16
8351.5  5.962347E-16
8353.00000000001  5.801557E-16
8354.50000000001  5.621864E-16
8356.  5.866891E-16
8357.5  5.789804E-16
8359.  5.599324E-16
8360.50000000001  5.794055E-16
8362.  5.921178E-16
8363.5  6.125382E-16
8365.  6.110740E-16
8366.5  6.100355E-16
8368.  6.115255E-16
8369.5  5.880374E-16
8371.  5.882322E-16
8372.5  6.141987E-16
8374.  6.360530E-16
8375.5  6.307532E-16
8377.  6.456519E-16
8378.5  6.630682E-16
8380.  6.633279E-16
8381.5  6.490613E-16
8383.  6.266280E-16
8384.5  6.388533E-16
8386.  6.820939E-16
8387.5  6.923271E-16
8389.  6.482687E-16
8390.50000000001  6.482144E-16
8392.00000000001  6.718381E-16
8393.5  6.684349E-16
8395.  6.711069E-16
8396.5  6.686339E-16
8398.00000000001  6.830905E-16
8399.5  6.309469E-16
8401.  5.879182E-16
8402.5  6.421102E-16
8404.  6.617687E-16
8405.5  6.395623E-16
8407.  6.393375E-16
8408.5  6.438509E-16
8410.  6.922708E-16
8411.5  7.231937E-16
8413.  6.826062E-16
8414.5  6.441992E-16
8416.  6.431201E-16
8417.5  6.410548E-16
8419.  6.096291E-16
8420.5  6.102817E-16
8422.  6.386241E-16
8423.5  6.283343E-16
8425.  6.307032E-16
8426.5  6.081798E-16
8428.  5.859426E-16
8429.5  6.083376E-16
8431.  6.106895E-16
8432.5  6.171838E-16
8434.  6.169964E-16
8435.5  5.748722E-16
8437.  6.157553E-16
8438.5  6.208886E-16
8440.  6.205940E-16
8441.5  6.548484E-16
8443.  6.391733E-16
8444.5  6.280847E-16
8446.  6.390053E-16
8447.5  6.380430E-16
8449.  6.257983E-16
8450.5  6.662069E-16
8452.  6.303656E-16
8453.5  6.680183E-16
8455.  6.813006E-16
8456.5  6.517657E-16
8458.  6.524289E-16
8459.5  6.616115E-16
8461.  7.115106E-16
8462.5  7.223426E-16
8464.  6.820158E-16
8465.5  6.738804E-16
8467.  6.869941E-16
8468.5  6.778146E-16
8470.  6.696143E-16
8471.5  6.433935E-16
8473.  6.266455E-16
8474.5  6.507429E-16
8476.  6.802907E-16
8477.5  6.806079E-16
8479.  6.841632E-16
8480.5  7.185860E-16
8482.  7.318276E-16
8483.5  7.031910E-16
8485.  6.900867E-16
8486.5  7.381061E-16
8488.  7.363487E-16
8489.5  7.349860E-16
8491.  7.598253E-16
8492.5  7.649098E-16
8494.  7.248513E-16
8495.5  7.461755E-16
8497.  7.790389E-16
8498.5  7.681514E-16
8500.  7.777874E-16
8501.5  7.485201E-16
8503.  7.420872E-16
8504.5  7.793836E-16
8506.  8.107069E-16
8507.5  8.331395E-16
8509.  7.856021E-16
8510.5  7.849155E-16
8512.  8.385270E-16
8513.5  8.144119E-16
8515.  8.158778E-16
8516.5  8.337014E-16
8518.  8.131282E-16
8519.5  8.166145E-16
8521.  8.573157E-16
8522.5  8.816715E-16
8524.  8.735072E-16
8525.5  8.653063E-16
8527.  8.705438E-16
8528.5  8.867626E-16
8530.00000000001  8.883170E-16
8531.5  8.867695E-16
8533.00000000001  9.228929E-16
8534.50000000001  9.530803E-16
8536.00000000001  9.597578E-16
8537.5  9.599881E-16
8539.  9.637217E-16
8540.50000000001  9.737994E-16
8542.00000000001  9.786630E-16
8543.5  9.872159E-16
8545.  9.927772E-16
8546.5  1.005508E-15
8548.00000000001  9.897991E-16
8549.5  1.006479E-15
8551.  1.033799E-15
8552.5  1.027017E-15
8554.  9.873041E-16
8555.5  1.009667E-15
8557.  1.029722E-15
8558.5  1.039006E-15
8560.  1.064243E-15
8561.5  1.063339E-15
8563.  1.065886E-15
8564.5  1.069723E-15
8566.  1.088453E-15
8567.5  1.076620E-15
8569.  1.070770E-15
8570.5  1.101795E-15
8572.  1.112499E-15
8573.5  1.133255E-15
8575.  1.124656E-15
8576.5  1.116491E-15
8578.00000000001  1.098917E-15
8579.50000000001  1.139629E-15
8581.  1.144756E-15
8582.5  1.144266E-15
8584.  1.177926E-15
8585.50000000001  1.171230E-15
8587.  1.166517E-15
8588.5  1.186486E-15
8590.  1.207216E-15
8591.5  1.205477E-15
8593.  1.191554E-15
8594.5  1.215350E-15
8596.  1.248541E-15
8597.5  1.241744E-15
8599.  1.211497E-15
8600.5  1.211977E-15
8602.  1.246367E-15
8603.5  1.249295E-15
8605.  1.235867E-15
8606.5  1.246489E-15
8608.  1.277451E-15
8609.5  1.302489E-15
8611.  1.303391E-15
8612.5  1.293471E-15
8614.  1.279024E-15
8615.5  1.265711E-15
8617.  1.259715E-15
8618.5  1.275501E-15
8620.  1.310238E-15
8621.5  1.334599E-15
8623.  1.342478E-15
8624.5  1.325286E-15
8626.  1.338436E-15
8627.5  1.346001E-15
8629.  1.339672E-15
8630.5  1.313420E-15
8632.  1.333230E-15
8633.5  1.368308E-15
8635.  1.327740E-15
8636.5  1.334593E-15
8638.  1.357170E-15
8639.5  1.338598E-15
8641.  1.315793E-15
8642.5  1.331935E-15
8644.  1.332945E-15
8645.5  1.353495E-15
8647.  1.396701E-15
8648.5  1.394074E-15
8650.  1.391786E-15
8651.5  1.384809E-15
8653.  1.390928E-15
8654.5  1.397399E-15
8656.  1.374497E-15
8657.5  1.378794E-15
8659.  1.400553E-15
8660.5  1.399200E-15
8662.  1.368683E-15
8663.5  1.353334E-15
8665.  1.401047E-15
8666.5  1.404173E-15
8668.  1.361193E-15
8669.5  1.375993E-15
8671.  1.426630E-15
8672.5  1.434435E-15
8674.  1.390917E-15
8675.5  1.410355E-15
8677.  1.434207E-15
8678.5  1.422500E-15
8680.  1.403039E-15
8681.5  1.430712E-15
8683.  1.407888E-15
8684.5  1.406962E-15
8686.  1.393309E-15
8687.5  1.440171E-15
8689.  1.395494E-15
8690.5  1.390955E-15
8692.  1.425946E-15
8693.5  1.431675E-15
8695.  1.415821E-15
8696.5  1.383699E-15
8698.  1.405768E-15
8699.5  1.408580E-15
8701.  1.395690E-15
8702.5  1.381033E-15
8704.  1.383277E-15
8705.5  1.387372E-15
8707.  1.388719E-15
8708.5  1.387666E-15
8710.  1.376439E-15
8711.5  1.382382E-15
8713.  1.356493E-15
8714.5  1.332057E-15
8716.  1.383729E-15
8717.50000000001  1.450767E-15
8719.  1.427190E-15
8720.50000000001  1.391515E-15
8722.00000000001  1.410457E-15
8723.50000000001  1.386956E-15
8725.  1.347835E-15
8726.5  1.344926E-15
8728.00000000001  1.374367E-15
8729.50000000001  1.384800E-15
8731.  1.363537E-15
8732.5  1.350277E-15
8734.  1.391974E-15
8735.50000000001  1.406233E-15
8737.  1.395478E-15
8738.5  1.396410E-15
8740.  1.391560E-15
8741.5  1.387291E-15
8743.  1.401842E-15
8744.5  1.366359E-15
8746.  1.367247E-15
8747.5  1.335636E-15
8749.  1.375014E-15
8750.5  1.355027E-15
8752.  1.360574E-15
8753.5  1.374973E-15
8755.  1.395566E-15
8756.5  1.348286E-15
8758.  1.377619E-15
8759.5  1.380625E-15
8761.  1.388142E-15
8762.5  1.345314E-15
8764.  1.302039E-15
8765.50000000001  1.305761E-15
8767.00000000001  1.318525E-15
8768.5  1.354781E-15
8770.  1.422550E-15
8771.5  1.420162E-15
8773.00000000001  1.361133E-15
8774.5  1.365016E-15
8776.  1.361461E-15
8777.5  1.312919E-15
8779.  1.322150E-15
8780.5  1.370187E-15
8782.  1.376778E-15
8783.5  1.343918E-15
8785.  1.338216E-15
8786.5  1.390155E-15
8788.  1.406853E-15
8789.5  1.354997E-15
8791.  1.321965E-15
8792.5  1.299628E-15
8794.  1.323319E-15
8795.5  1.334392E-15
8797.  1.323386E-15
8798.5  1.325876E-15
8800.  1.332902E-15
8801.5  1.343888E-15
8803.  1.351628E-15
8804.5  1.334980E-15
8806.  1.332628E-15
8807.5  1.350167E-15
8809.  1.331231E-15
8810.5  1.293607E-15
8812.  1.283561E-15
8813.5  1.304032E-15
8815.  1.313322E-15
8816.5  1.329479E-15
8818.  1.313592E-15
8819.5  1.324493E-15
8821.  1.333305E-15
8822.5  1.360191E-15
8824.  1.328126E-15
8825.5  1.303662E-15
8827.  1.338853E-15
8828.5  1.388999E-15
8830.  1.313709E-15
8831.5  1.268384E-15
8833.  1.311785E-15
8834.5  1.354570E-15
8836.  1.334462E-15
8837.5  1.286574E-15
8839.  1.290291E-15
8840.5  1.295711E-15
8842.  1.278274E-15
8843.5  1.298238E-15
8845.  1.315523E-15
8846.5  1.283770E-15
8848.  1.266430E-15
8849.5  1.271377E-15
8851.  1.262297E-15
8852.5  1.263096E-15
8854.  1.243256E-15
8855.5  1.244430E-15
8857.  1.287957E-15
8858.5  1.281219E-15
8860.  1.268667E-15
8861.5  1.266274E-15
8863.  1.286657E-15
8864.5  1.314129E-15
8866.  1.306920E-15
8867.5  1.282436E-15
8869.  1.248415E-15
8870.5  1.266900E-15
8872.  1.247130E-15
8873.5  1.221280E-15
8875.  1.244151E-15
8876.5  1.244123E-15
8878.  1.208167E-15
8879.5  1.192895E-15
8881.  1.198858E-15
8882.5  1.160377E-15
8884.  1.157497E-15
8885.5  1.183058E-15
8887.  1.168917E-15
8888.5  1.150735E-15
8890.  1.132424E-15
8891.5  1.096357E-15
8893.  1.090798E-15
8894.5  1.067504E-15
8896.  1.056378E-15
8897.5  1.088944E-15
8899.  1.069267E-15
8900.5  1.003654E-15
8902.  9.691899E-16
8903.5  9.724974E-16
8905.00000000001  1.012006E-15
8906.5  1.049160E-15
8908.00000000001  1.022694E-15
8909.50000000001  9.790419E-16
8911.00000000001  9.496446E-16
8912.5  9.467758E-16
8914.  9.630030E-16
8915.50000000001  9.030210E-16
8917.00000000001  8.783858E-16
8918.5  9.343737E-16
8920.  9.088293E-16
8921.5  8.916370E-16
8923.00000000001  8.742656E-16
8924.5  8.892561E-16
8926.  8.443430E-16
8927.5  8.441007E-16
8929.  8.422363E-16
8930.5  8.309887E-16
8932.  8.012110E-16
8933.5  7.779418E-16
8935.  8.052674E-16
8936.5  8.192242E-16
8938.  8.077528E-16
8939.5  8.382919E-16
8941.  7.397637E-16
8942.5  7.644526E-16
8944.  7.727916E-16
8945.5  7.313287E-16
8947.  7.379889E-16
8948.5  7.722977E-16
8950.  7.635352E-16
8951.5  7.433984E-16
8953.00000000001  7.434082E-16
8954.50000000001  7.251248E-16
8956.  7.140054E-16
8957.5  6.835848E-16
8959.  6.795952E-16
8960.50000000001  7.197286E-16
8962.  7.059554E-16
8963.5  6.558934E-16
8965.  6.597586E-16
8966.5  6.824375E-16
8968.  6.402851E-16
8969.5  6.248916E-16
8971.  6.212319E-16
8972.5  6.275832E-16
8974.  6.126614E-16
8975.5  5.994921E-16
8977.  6.185309E-16
8978.5  5.842577E-16
8980.  5.568568E-16
8981.5  5.922434E-16
8983.  6.133527E-16
8984.5  5.969985E-16
8986.  5.714239E-16
8987.5  5.457342E-16
8989.  5.918024E-16
8990.5  5.909548E-16
8992.  5.538364E-16
8993.5  5.554180E-16
8995.  5.934968E-16
8996.5  6.273580E-16
8998.  5.307832E-16
8999.5  5.226739E-16
9001.  5.633446E-16
9002.5  5.709081E-16
9004.  5.809187E-16
9005.5  5.579029E-16
9007.  5.428731E-16
9008.5  5.559687E-16
9010.  5.456465E-16
9011.5  5.419773E-16
9013.  5.519701E-16
9014.5  5.518962E-16
9016.  5.835491E-16
9017.5  6.116707E-16
9019.  5.888048E-16
9020.5  5.641291E-16
9022.  5.632473E-16
9023.5  5.702729E-16
9025.  5.800910E-16
9026.5  5.866321E-16
9028.  5.817351E-16
9029.5  5.587675E-16
9031.  5.431288E-16
9032.5  5.689842E-16
9034.  5.880800E-16
9035.5  6.060806E-16
9037.  6.101517E-16
9038.5  6.080240E-16
9040.  5.979499E-16
9041.5  6.094742E-16
9043.  6.185639E-16
9044.5  6.408214E-16
9046.  6.594564E-16
9047.5  6.688212E-16
9049.  6.142922E-16
9050.5  6.516486E-16
9052.  6.815067E-16
9053.5  6.851591E-16
9055.  6.626081E-16
9056.5  6.561794E-16
9058.  6.768018E-16
9059.5  6.662867E-16
9061.  6.705241E-16
9062.5  6.724208E-16
9064.  6.888745E-16
9065.5  7.013974E-16
9067.  6.982468E-16
9068.5  7.078957E-16
9070.  7.411062E-16
9071.5  7.268373E-16
9073.  7.057944E-16
9074.5  7.377636E-16
9076.  7.681045E-16
9077.5  7.467097E-16
9079.  7.306844E-16
9080.5  7.601419E-16
9082.  7.847135E-16
9083.5  7.722372E-16
9085.  7.796192E-16
9086.5  8.069400E-16
9088.  8.019044E-16
9089.5  8.045350E-16
9091.  8.061753E-16
9092.50000000001  8.237644E-16
9094.  8.447871E-16
9095.50000000001  8.250970E-16
9097.00000000001  8.053423E-16
9098.50000000001  8.031539E-16
9100.  8.176990E-16
9101.5  8.493198E-16
9103.00000000001  8.382577E-16
9104.50000000001  8.181045E-16
9106.  8.429904E-16
9107.5  8.220891E-16
9109.  8.347582E-16
9110.50000000001  8.451351E-16
9112.  8.442868E-16
9113.5  8.662591E-16
9115.  8.560624E-16
9116.5  8.405827E-16
9118.  8.679608E-16
9119.5  8.843263E-16
9121.  8.808615E-16
9122.5  8.746634E-16
9124.  8.820476E-16
9125.5  8.897100E-16
9127.  8.776435E-16
9128.5  8.658522E-16
9130.  8.812094E-16
9131.5  9.085346E-16
9133.  9.051855E-16
9134.5  8.953940E-16
9136.  8.995554E-16
9137.5  8.804932E-16
9139.  8.860919E-16
9140.50000000001  9.070123E-16
9142.00000000001  8.845351E-16
9143.5  8.956857E-16
9145.  9.359198E-16
9146.5  9.191524E-16
9148.00000000001  9.216040E-16
9149.5  9.611530E-16
9151.  9.261836E-16
9152.5  8.996786E-16
9154.  9.396033E-16
9155.5  9.108192E-16
9157.  8.806413E-16
9158.5  8.771543E-16
9160.  9.436758E-16
9161.5  9.729457E-16
9163.  9.474082E-16
9164.5  8.948726E-16
9166.  8.803515E-16
9167.5  9.233384E-16
9169.  9.272947E-16
9170.5  9.109735E-16
9172.  8.599977E-16
9173.5  8.756833E-16
9175.  8.835856E-16
9176.5  8.661895E-16
9178.  8.665725E-16
9179.5  8.583071E-16
9181.  8.769263E-16
9182.5  8.938873E-16
9184.  8.743603E-16
9185.5  8.774466E-16
9187.  8.987964E-16
9188.5  9.087444E-16
9190.  9.058002E-16
9191.5  8.750245E-16
9193.  8.843512E-16
9194.5  8.839250E-16
9196.  8.726907E-16
9197.5  8.885654E-16
9199.  8.866399E-16
9200.5  8.547054E-16
9202.  8.568190E-16
9203.5  8.914772E-16
9205.  8.978095E-16
9206.5  9.059683E-16
9208.  9.080265E-16
9209.5  8.790467E-16
9211.  8.984476E-16
9212.5  9.187229E-16
9214.  9.230208E-16
9215.5  9.214614E-16
9217.  8.689796E-16
9218.5  9.045471E-16
9220.  9.543256E-16
9221.5  9.090616E-16
9223.  9.101086E-16
9224.5  9.206202E-16
9226.  9.011908E-16
9227.5  8.871166E-16
9229.  8.776538E-16
9230.5  9.172404E-16
9232.  9.346378E-16
9233.5  9.163968E-16
9235.  8.935103E-16
9236.5  9.321303E-16
9238.  9.312117E-16
9239.5  9.425171E-16
9241.  9.135650E-16
9242.5  9.040640E-16
9244.  9.326737E-16
9245.5  9.145308E-16
9247.  9.345385E-16
9248.5  9.036010E-16
9250.  9.286753E-16
9251.5  9.486431E-16
9253.  9.526310E-16
9254.5  9.636223E-16
9256.  9.254905E-16
9257.5  9.003743E-16
9259.  8.860354E-16
9260.5  8.821640E-16
9262.  9.095175E-16
9263.5  9.248759E-16
9265.  9.183802E-16
9266.5  9.179821E-16
9268.  9.240524E-16
9269.5  9.210674E-16
9271.  9.299971E-16
9272.5  9.175365E-16
9274.  8.993654E-16
9275.5  9.043686E-16
9277.  9.587821E-16
9278.5  9.523212E-16
9280.00000000001  9.456902E-16
9281.5  9.488379E-16
9283.00000000001  9.199618E-16
9284.50000000001  9.516811E-16
9286.00000000001  9.563537E-16
9287.5  9.407671E-16
9289.  9.493755E-16
9290.50000000001  9.176685E-16
9292.00000000001  9.367841E-16
9293.5  9.794418E-16
9295.  9.588882E-16
9296.5  9.584993E-16
9298.00000000001  9.442257E-16
9299.5  9.591098E-16
9301.  1.026000E-15
9302.5  1.003009E-15
9304.  9.336880E-16
9305.5  9.986847E-16
9307.  1.076366E-15
9308.5  1.078989E-15
9310.  1.041953E-15
9311.5  9.930631E-16
9313.  9.932575E-16
9314.5  1.044615E-15
9316.  1.111879E-15
9317.5  1.076902E-15
9319.  1.014852E-15
9320.5  1.034379E-15
9322.  9.792795E-16
9323.5  8.512818E-16
9325.  8.514770E-16
9326.5  9.539157E-16
9328.00000000001  1.011804E-15
9329.50000000001  1.018291E-15
9331.  1.018706E-15
9332.5  1.004433E-15
9334.  9.875812E-16
9335.50000000001  9.824443E-16
9337.  9.894229E-16
9338.5  9.881838E-16
9340.  9.658696E-16
9341.5  9.379702E-16
9343.  9.568497E-16
9344.5  1.012394E-15
9346.  1.058837E-15
9347.5  1.059024E-15
9349.  1.046114E-15
9350.5  1.043061E-15
9352.  1.031574E-15
9353.5  1.003681E-15
9355.  9.730292E-16
9356.5  9.677836E-16
9358.  9.952858E-16
9359.5  1.032716E-15
9361.  1.035582E-15
9362.5  1.027028E-15
9364.  1.011567E-15
9365.5  1.041289E-15
9367.  1.028379E-15
9368.5  1.014557E-15
9370.  1.068535E-15
9371.5  1.154109E-15
9373.  1.092919E-15
9374.5  1.027139E-15
9376.  9.960679E-16
9377.5  9.697462E-16
9379.  1.041839E-15
9380.5  9.939144E-16
9382.  9.553842E-16
9383.5  1.001242E-15
9385.  9.937590E-16
9386.5  1.011507E-15
9388.  1.024665E-15
9389.5  1.042980E-15
9391.  1.039558E-15
9392.5  1.050488E-15
9394.  1.051931E-15
9395.5  1.046428E-15
9397.  1.034942E-15
9398.5  1.043700E-15
9400.  1.041658E-15
9401.5  1.048741E-15
9403.  1.057448E-15
9404.5  1.076153E-15
9406.  9.966194E-16
9407.5  1.007103E-15
9409.  1.033440E-15
9410.5  1.019803E-15
9412.  1.070502E-15
9413.5  1.071087E-15
9415.  1.037707E-15
9416.5  9.960112E-16
9418.  1.061408E-15
9419.5  1.057062E-15
9421.  1.074741E-15
9422.5  1.094982E-15
9424.  1.011434E-15
9425.5  9.997358E-16
9427.  1.067036E-15
9428.5  1.102458E-15
9430.  1.091323E-15
9431.5  1.115453E-15
9433.  1.131535E-15
9434.5  1.084041E-15
9436.  1.104710E-15
9437.5  1.141935E-15
9439.  1.103193E-15
9440.5  1.051859E-15
9442.  1.103030E-15
9443.5  1.210733E-15
9445.  1.145845E-15
9446.5  1.055713E-15
9448.  1.098052E-15
9449.5  1.075338E-15
9451.  1.066575E-15
9452.5  1.087914E-15
9454.  1.075412E-15
9455.5  1.122864E-15
9457.  1.157027E-15
9458.5  1.107664E-15
9460.  1.038247E-15
9461.5  1.089950E-15
9463.  1.032413E-15
9464.5  1.027350E-15
9466.  1.029972E-15
9467.50000000001  1.064279E-15
9469.  1.114466E-15
9470.50000000001  1.108374E-15
9472.00000000001  9.911869E-16
9473.50000000001  1.053107E-15
9475.  1.103780E-15
9476.5  9.824770E-16
9478.00000000001  9.093779E-16
9479.50000000001  1.020757E-15
9481.  1.030006E-15
9482.5  9.967828E-16
9484.  1.063358E-15
9485.50000000001  1.057476E-15
9487.  1.060322E-15
9488.5  1.099931E-15
9490.  1.087764E-15
9491.5  1.076636E-15
9493.  1.106332E-15
9494.5  1.120128E-15
9496.  1.115702E-15
9497.5  1.076162E-15
9499.  1.039484E-15
9500.5  1.046218E-15
9502.  1.046638E-15
9503.5  1.069787E-15
9505.  1.106533E-15
9506.5  1.091100E-15
9508.  1.053366E-15
9509.5  1.025687E-15
9511.  1.042479E-15
9512.5  1.097466E-15
9514.  1.110667E-15
9515.50000000001  1.070128E-15
9517.00000000001  1.066843E-15
9518.5  1.086509E-15
9520.  1.045039E-15
9521.5  1.064264E-15
9523.00000000001  1.063990E-15
9524.5  1.021132E-15
9526.  1.049934E-15
9527.5  1.068812E-15
9529.  1.101694E-15
9530.5  1.053700E-15
9532.  1.052696E-15
9533.5  1.087111E-15
9535.  1.071974E-15
9536.5  1.047277E-15
9538.  1.049909E-15
9539.5  1.062790E-15
9541.  1.025325E-15
9542.5  1.036716E-15
9544.  1.085674E-15
9545.5  1.052460E-15
9547.  1.056031E-15
9548.5  1.101957E-15
9550.  1.064433E-15
9551.5  1.023829E-15
9553.  1.060638E-15
9554.5  1.054726E-15
9556.  1.002634E-15
9557.5  1.033930E-15
9559.  1.056798E-15
9560.5  1.022515E-15
9562.  1.033387E-15
9563.5  1.046135E-15
9565.  1.033684E-15
9566.5  1.050620E-15
9568.  1.076886E-15
9569.5  1.108666E-15
9571.  1.113064E-15
9572.5  1.038062E-15
9574.  9.765175E-16
9575.5  1.003823E-15
9577.  1.042656E-15
9578.5  1.020631E-15
9580.  9.889204E-16
9581.5  1.005423E-15
9583.  1.007522E-15
9584.5  9.599528E-16
9586.  9.608309E-16
9587.5  9.731484E-16
9589.  9.625891E-16
9590.5  1.002241E-15
9592.  9.832929E-16
9593.5  9.549268E-16
9595.  9.447592E-16
9596.5  9.359909E-16
9598.  9.599866E-16
9599.5  9.961394E-16
9601.  9.973188E-16
9602.5  9.884327E-16
9604.  9.876767E-16
9605.5  1.000369E-15
9607.  9.682725E-16
9608.5  9.327032E-16
9610.  9.162474E-16
9611.5  9.248888E-16
9613.  9.381085E-16
9614.5  9.256226E-16
9616.  9.180918E-16
9617.5  9.429415E-16
9619.  9.472166E-16
9620.5  9.664791E-16
9622.  9.832676E-16
9623.5  9.355130E-16
9625.  9.137446E-16
9626.5  9.512532E-16
9628.  9.649721E-16
9629.5  9.609192E-16
9631.  9.658254E-16
9632.5  9.616270E-16
9634.  9.487962E-16
9635.5  9.254537E-16
9637.  9.109948E-16
9638.5  9.112661E-16
9640.  9.101938E-16
9641.5  9.222735E-16
9643.  9.267142E-16
9644.5  9.142034E-16
9646.  8.783046E-16
9647.5  8.694175E-16
9649.  8.918634E-16
9650.5  9.192790E-16
9652.  9.286204E-16
9653.5  9.208817E-16
9655.00000000001  8.786751E-16
9656.5  8.875231E-16
9658.00000000001  8.757830E-16
9659.50000000001  9.337251E-16
9661.00000000001  9.132021E-16
9662.5  8.830878E-16
9664.  8.430551E-16
9665.50000000001  8.940989E-16
9667.00000000001  8.415303E-16
9668.5  8.769770E-16
9670.  8.830057E-16
9671.5  9.055701E-16
9673.00000000001  9.212107E-16
9674.5  9.548281E-16
9676.  9.471435E-16
9677.5  9.046976E-16
9679.  9.250940E-16
9680.5  9.211054E-16
9682.  9.019944E-16
9683.5  8.950399E-16
9685.  8.979726E-16
9686.5  9.214551E-16
9688.  8.815010E-16
9689.5  8.311018E-16
9691.  8.348418E-16
9692.5  8.452772E-16
9694.  8.588963E-16
9695.5  8.390115E-16
9697.  8.291943E-16
9698.5  7.894705E-16
9700.  8.168842E-16
9701.5  8.519004E-16
9703.00000000001  7.952268E-16
9704.50000000001  7.969701E-16
9706.  8.466111E-16
9707.5  8.406117E-16
9709.  8.577527E-16
9710.50000000001  8.789335E-16
9712.  8.605558E-16
9713.5  8.751578E-16
9715.  9.163831E-16
9716.5  9.284769E-16
9718.  9.107017E-16
9719.5  8.579808E-16
9721.  8.378046E-16
9722.5  8.376320E-16
9724.  8.028380E-16
9725.5  7.864466E-16
9727.  8.016205E-16
9728.5  8.333715E-16
9730.  8.155357E-16
9731.5  7.625121E-16
9733.  7.816578E-16
9734.5  7.993941E-16
9736.  7.611390E-16
9737.5  7.374038E-16
9739.  7.929084E-16
9740.5  8.124066E-16
9742.  7.698724E-16
9743.5  7.762410E-16
9745.  8.029180E-16
9746.5  8.102155E-16
9748.  8.215751E-16
9749.5  7.980993E-16
9751.  7.445689E-16
9752.5  7.403863E-16
9754.  7.828492E-16
9755.5  7.893137E-16
9757.  7.521026E-16
9758.5  7.369936E-16
9760.  7.668864E-16
9761.5  7.660101E-16
9763.  7.405654E-16
9764.5  7.483890E-16
9766.  7.506783E-16
9767.5  7.519765E-16
9769.  7.559020E-16
9770.5  7.775780E-16
9772.  7.743824E-16
9773.5  7.380751E-16
9775.  8.261603E-16
9776.5  8.222200E-16
9778.  7.414248E-16
9779.5  7.696551E-16
9781.  7.496048E-16
9782.5  7.336012E-16
9784.  7.491628E-16
9785.5  7.888269E-16
9787.  8.378214E-16
9788.5  7.246535E-16
9790.  7.185041E-16
9791.5  8.246615E-16
9793.  7.929280E-16
9794.5  7.612733E-16
9796.  7.524765E-16
9797.5  7.251177E-16
9799.  7.523052E-16
9800.5  7.865602E-16
9802.  7.641577E-16
9803.5  7.217974E-16
9805.  7.142132E-16
9806.5  7.035517E-16
9808.  6.738164E-16
9809.5  7.018520E-16
9811.  7.367037E-16
9812.5  7.031200E-16
9814.  6.545094E-16
9815.5  6.353479E-16
9817.  6.719915E-16
9818.5  6.859278E-16
9820.  6.558874E-16
9821.5  6.694325E-16
9823.  7.021816E-16
9824.5  7.121783E-16
9826.  6.907243E-16
9827.5  6.766709E-16
9829.  6.422805E-16
9830.5  6.214287E-16
9832.  6.484097E-16
9833.5  6.827890E-16
9835.  6.547985E-16
9836.5  6.519583E-16
9838.  6.738680E-16
9839.5  6.721738E-16
9841.  6.863343E-16
9842.50000000001  7.254584E-16
9844.  7.343087E-16
9845.50000000001  7.021581E-16
9847.00000000001  6.801139E-16
9848.50000000001  6.991074E-16
9850.  6.637250E-16
9851.5  6.443673E-16
9853.00000000001  6.534209E-16
9854.50000000001  6.510839E-16
9856.  6.436771E-16
9857.5  6.514945E-16
9859.  6.596587E-16
9860.50000000001  6.513196E-16
9862.  6.456024E-16
9863.5  6.785025E-16
9865.  6.928814E-16
9866.5  6.992009E-16
9868.  7.345319E-16
9869.5  7.204667E-16
9871.  6.686853E-16
9872.5  6.780673E-16
9874.  6.870304E-16
9875.5  6.630280E-16
9877.  6.999514E-16
9878.5  6.786920E-16
9880.  6.643140E-16
9881.5  6.965089E-16
9883.  6.957217E-16
9884.5  7.005592E-16
9886.  7.255844E-16
9887.5  7.226119E-16
9889.  7.127190E-16
9890.50000000001  7.379582E-16
9892.00000000001  7.344588E-16
9893.5  7.015210E-16
9895.  7.297325E-16
9896.5  6.626659E-16
9898.00000000001  6.692604E-16
9899.5  6.764237E-16
9901.  7.300690E-16
9902.5  7.094765E-16
9904.  6.451351E-16
9905.5  6.976036E-16
9907.  7.857363E-16
9908.5  7.525585E-16
9910.  7.204126E-16
9911.5  7.395949E-16
9913.  6.797616E-16
9914.5  6.588936E-16
9916.  6.514026E-16
9917.5  7.367465E-16
9919.  7.496684E-16
9920.5  7.098278E-16
9922.  6.970594E-16
9923.5  7.095539E-16
9925.  7.248721E-16
9926.5  7.213463E-16
9928.  7.356126E-16
9929.5  7.250733E-16
9931.  7.073136E-16
9932.5  7.074350E-16
9934.  6.908175E-16
9935.5  7.079114E-16
9937.  7.219547E-16
9938.5  7.218848E-16
9940.  6.573392E-16
9941.5  7.000225E-16
9943.  7.347922E-16
9944.5  7.370715E-16
9946.  5.935657E-16
9947.5  6.073176E-16
9949.  7.027236E-16
9950.5  7.195148E-16
9952.  6.603824E-16
9953.5  5.854963E-16
9955.  6.082747E-16
9956.5  7.828491E-16
9958.  7.035095E-16
9959.5  6.491007E-16
9961.  7.920955E-16
9962.5  7.033963E-16
9964.  6.938326E-16
9965.5  6.213628E-16
9967.  6.645572E-16
9968.5  7.189093E-16
9970.  7.447281E-16
9971.5  7.191080E-16
9973.  6.495065E-16
9974.5  6.763893E-16
9976.  7.133811E-16
9977.5  6.866442E-16
9979.  6.893299E-16
9980.5  7.268599E-16
9982.  7.185949E-16
9983.5  6.832850E-16
9985.  7.033017E-16
9986.5  7.002046E-16
9988.  6.905701E-16
9989.5  7.079264E-16
9991.  6.921567E-16
9992.5  6.656764E-16
9994.  6.632508E-16
9995.5  7.310835E-16
9997.  7.319555E-16
9998.5  6.280166E-16
10000.  6.330140E-16
10001.5  6.630719E-16
10003.  6.381688E-16
10004.5  6.819982E-16
10006.  6.988073E-16
10007.5  6.547297E-16
10009.  6.169816E-16
10010.5  6.317029E-16
10012.  7.431903E-16
10013.5  8.831076E-16
10015.  7.473949E-16
10016.5  6.869628E-16
10018.  5.841996E-16
10019.5  6.100358E-16
10021.  6.480490E-16
10022.5  7.050201E-16
10024.  6.556726E-16
10025.5  6.233411E-16
10027.  7.368829E-16
10028.5  6.990329E-16
10030.  6.879678E-16
10031.5  6.560701E-16
10033.  6.341615E-16
10034.5  6.784536E-16
10036.  7.138109E-16
10037.5  7.156929E-16
10039.  7.287488E-16
10040.5  7.475811E-16
10042.  7.374192E-16
10043.5  7.176702E-16
10045.  7.081975E-16
10046.5  7.061439E-16
10048.  6.959769E-16
10049.5  7.001438E-16
10051.  7.074706E-16
10052.5  6.767534E-16
10054.  6.696656E-16
10055.5  7.526023E-16
10057.  8.203156E-16
10058.5  7.377870E-16
10060.  6.937694E-16
10061.5  7.532687E-16
10063.  7.088422E-16
10064.5  6.615018E-16
10066.  7.086277E-16
10067.5  7.192437E-16
10069.  7.006056E-16
10070.5  7.348641E-16
10072.  7.538478E-16
10073.5  6.887861E-16
10075.  6.723082E-16
10076.5  6.704707E-16
10078.  6.521139E-16
10079.5  7.870771E-16
10081.  7.818806E-16
10082.5  7.197074E-16
10084.  7.045318E-16
10085.5  6.924408E-16
10087.  6.622308E-16
10088.5  5.584049E-16
10090.  6.153905E-16
10091.5  6.794199E-16
10093.  6.790105E-16
10094.5  6.979622E-16
10096.  6.789722E-16
10097.5  6.762513E-16
10099.  7.073540E-16
10100.5  6.774604E-16
10102.  6.733838E-16
10103.5  5.472274E-16
10105.  5.088636E-16
10106.5  6.938837E-16
10108.  7.157799E-16
10109.5  6.485406E-16
10111.  6.605918E-16
10112.5  6.291836E-16
10114.  5.981083E-16
10115.5  5.967093E-16
10117.  6.867659E-16
10118.5  7.809301E-16
10120.  6.844198E-16
10121.5  6.422762E-16
10123.  7.447910E-16
10124.5  6.709688E-16
10126.  5.694686E-16
10127.5  5.888425E-16
10129.  6.117620E-16
10130.5  5.349584E-16
10132.  6.183691E-16
10133.5  6.728336E-16
10135.  5.748644E-16
10136.5  5.955942E-16
10138.  6.778738E-16
10139.5  6.814389E-16
10141.  6.839838E-16
10142.5  6.890320E-16
10144.  6.277616E-16
10145.5  6.511738E-16
10147.  6.151519E-16
10148.5  6.900334E-16
10150.  7.786861E-16
10151.5  7.616815E-16
10153.  6.745296E-16
10154.5  5.556251E-16
10156.  5.978883E-16
10157.5  5.547209E-16
10159.  5.433169E-16
10160.5  6.363924E-16
10162.  5.568543E-16
10163.5  5.640814E-16
10165.  6.265506E-16
10166.5  6.694137E-16
10168.  6.369606E-16
10169.5  5.453226E-16
10171.  5.427563E-16
10172.5  6.237017E-16
10174.  6.052031E-16
10175.5  4.133722E-16
10177.  3.952825E-16
10178.5  5.168392E-16
10180.  5.903530E-16
10181.5  6.424149E-16
10183.  7.651919E-16
10184.5  6.960465E-16
10186.  6.686613E-16
10187.5  7.527560E-16
10189.  6.448421E-16
10190.5  4.849574E-16
10192.  5.545528E-16
10193.5  4.824275E-16
10195.  6.505197E-16
10196.5  6.447282E-16
10198.  5.053984E-16
10199.5  5.515493E-16
10201.  6.230925E-16
10202.5  7.059847E-16
10204.  7.677424E-16
10205.5  5.881437E-16
10207.  7.019973E-16
10208.5  5.587235E-16
10210.  3.908995E-16
10211.5  6.706696E-16
10213.  8.398673E-16
10214.5  7.755577E-16
10216.  6.604095E-16
10217.5  6.150337E-16
10219.  5.597158E-16
10220.5  5.370582E-16
10222.  5.970194E-16
10223.5  6.247006E-16
10225.  6.457806E-16
10226.5  6.570788E-16
10228.  6.687163E-16
10229.5  5.461849E-16
10231.  3.399082E-16
10232.5  4.793274E-16
10234.  7.168459E-16
10235.5  6.803568E-16
10237.  6.831473E-16
10238.5  7.540455E-16
10240.  7.203767E-16
10241.5  5.732191E-16
10243.  5.072294E-16
10244.5  5.972192E-16
10246.  5.837465E-16
10247.5  5.886386E-16
10249.  6.322990E-16
10250.5  6.505400E-16
10252.  6.458744E-16
10253.5  6.237137E-16
10255.  6.155778E-16
10256.5  5.919513E-16
10258.  5.009116E-16
10259.5  6.007519E-16
10261.  5.053384E-16
10262.5  4.885177E-16
10264.  6.133973E-16
10265.5  5.413841E-16
10267.  5.556093E-16
10268.5  6.468441E-16
10270.  6.162865E-16
10271.5  6.499383E-16
10273.  5.299959E-16
10274.5  4.863804E-16
10276.  5.535021E-16
10277.5  5.293016E-16
10279.  5.542349E-16
10280.5  5.208408E-16
10282.  3.652453E-16
10283.5  6.035395E-16
10285.  6.800537E-16
10286.5  4.953254E-16
10288.  4.582847E-16
10289.5  6.897789E-16
10291.  8.426265E-16
10292.5  7.346529E-16
10294.  5.335144E-16
10295.5  4.335066E-16
10297.  6.311160E-16
10298.5  5.778758E-16
10300.  4.091020E-16
10301.5  4.893915E-16
10303.  5.214198E-16
10304.5  4.144049E-16
10306.  4.767150E-16
10307.5  5.504905E-16
10309.  5.943960E-16
10310.5  6.754937E-16
10312.  5.694476E-16
10313.5  5.890436E-16
10315.  5.755851E-16
10316.5  4.005779E-16
10318.  6.402547E-16
10319.5  5.752102E-16
10321.  5.218923E-16
10322.5  5.584191E-16
10324.  6.478512E-16
10325.5  6.398571E-16
10327.  5.121449E-16
10328.5  5.540006E-16
10330.  4.018755E-16
10331.5  3.839879E-16
10333.  6.608909E-16
10334.5  6.493539E-16
10336.  5.990530E-16
10337.5  5.265975E-16
10339.  3.743557E-16
10340.5  4.106692E-16
10342.  4.879299E-16
10343.5  5.417408E-16
10345.  5.146080E-16
10346.5  4.362674E-16
10348.  6.673651E-16
10349.5  7.559802E-16
10351.  3.606857E-16
10352.5  2.354322E-16
10354.  4.162589E-16
10355.5  4.340466E-16
10357.  5.343198E-16
10358.5  6.945217E-16
10360.  6.156521E-16
10361.5  5.023137E-16
10363.  5.535493E-16
10364.5  5.044774E-16
10366.  4.853560E-16
10367.5  5.978291E-16
10369.  7.646759E-16
10370.5  1.033279E-15
10372.  1.123135E-15
10373.5  1.267385E-15
10375.  9.966624E-16
10376.5  8.303048E-16
10378.  7.425376E-16
10379.5  4.005573E-16
10381.  3.307820E-16
10382.5  4.760423E-16
10384.  6.779778E-16
10385.5  6.337688E-16
10387.  5.062961E-16
10388.5  4.561710E-16
10390.  6.397784E-16
10391.5  5.998786E-16
10393.  5.425710E-16
10394.5  5.133183E-16
10396.  4.313576E-16
10397.5  5.749507E-16
10399.  6.051501E-16
10400.5  5.766097E-16
10402.  4.517839E-16
10403.5  2.794084E-16
10405.  3.480338E-16
10406.5  4.698460E-16
10408.  4.094556E-16
10409.5  3.181175E-16
10411.  4.528388E-16
10412.5  5.776921E-16
10414.  3.915073E-16
10415.5  3.616514E-16
10417.  5.003279E-16
10418.5  2.644060E-16
10420.  1.467690E-16
10421.5  3.921760E-16
10423.  4.140267E-16
10424.5  4.119836E-16
10426.  5.837887E-16
10427.5  6.970641E-16
10429.  4.708125E-16
10430.5  3.131364E-16
10432.  4.489365E-16
10433.5  3.221411E-16
10435.  3.333962E-16
10436.5  5.054396E-16
10438.  6.018500E-16
10439.5  5.405723E-16
10441.  2.854730E-16
10442.5  4.980930E-16
10444.  5.404465E-16
10445.5  4.296013E-16
10447.  5.509692E-16
10448.5  6.213715E-16
10450.  5.425123E-16
10451.5  4.884132E-16
10453.  5.555694E-16
10454.5  5.870129E-16
10456.  5.540515E-16
10457.5  5.462342E-16
10459.  5.602471E-16
10460.5  4.665844E-16
10462.  5.370429E-16
10463.5  5.949872E-16
10465.  3.673040E-16
10466.5  5.077061E-16
10468.  9.520425E-16
10469.5  1.187702E-15
10471.  9.045737E-16
10472.5  6.153602E-16
10474.  6.462279E-16
10475.5  6.304201E-16
10477.  5.230395E-16
10478.5  3.491722E-16
10480.  3.939448E-16
10481.5  4.411364E-16
10483.  4.980962E-16
10484.5  6.030551E-16
10486.  5.036162E-16
10487.5  3.570420E-16
10489.  5.154197E-16
10490.5  5.380452E-16
10492.  4.164526E-16
10493.5  3.785289E-16
10495.  5.633531E-16
10496.5  6.073390E-16
10498.  2.662734E-16
10499.5  3.178575E-16
10501.  3.945910E-16
10502.5  2.047346E-16
10504.  2.525297E-16
10505.5  5.155621E-16
10507.  4.610471E-16
10508.5  2.582547E-16
10510.  5.527237E-16
10511.5  7.458355E-16
10513.  4.806014E-16
10514.5  4.133188E-16
10516.  5.813559E-16
10517.5  2.438080E-16
10519.  1.726798E-16
10520.5  1.994192E-16
10522.  3.734737E-16
10523.5  5.463014E-16
10525.  5.461355E-16
10526.5  4.647642E-16
10528.  3.985332E-16
10529.5  5.009297E-16
10531.  6.256119E-16
10532.5  6.795551E-16
10534.  6.610117E-16
10535.5  5.758275E-16
10537.  6.201126E-16
10538.5  5.790305E-16
10540.  3.529703E-16
10541.5  3.603533E-16
10543.  5.445720E-16
10544.5  5.588526E-16
10546.  4.552992E-16
10547.5  5.323085E-16
10549.  4.541845E-16
10550.5  3.561543E-16
10552.  5.032921E-16
10553.5  4.607111E-16
10555.  4.952881E-16
10556.5  1.870485E-16
10558.  4.935740E-16
10559.5  5.313744E-16
10561.  3.547147E-16
10562.5  3.176234E-16
10564.  5.124929E-16
10565.5  4.682164E-16
10567.  4.218401E-16
10568.5  6.512882E-16
10570.  4.867576E-16
10571.5  4.947894E-16
10573.  4.644532E-16
10574.5  5.564388E-16
10576.  5.177239E-16
10577.5  3.172203E-16
10579.  5.422291E-16
10580.5  3.081321E-16
