# SIMPLE = T / Written by IDL: Sun Aug 4 17:41:56 2013 
# BITPIX = -32 / IEEE single precision floating point 
# NAXIS = 1 / Number of axes 
# NAXIS1 = 3751 /Number of positions along axis 1 
# EXTEND = T / File may contain extensions 
# ORIGIN = 'NOAO-IRAF FITS Image Kernel July 2003' / FITS file originator 
# DATE = '2013-08-04T13:34:54' / Date FITS file was generated 
# IRAF-TLM= '2013-08-04T13:34:54' / Time of last modification 
# COMMENT FITS (Flexible Image Transport System) format defined in Astronomy and
# COMMENT Astrophysics Supplement Series v44/p363, v44/p371, v73/p359, v73/p365.
# COMMENT Contact the NASA Science Office of Standards and Technology for the 
# COMMENT FITS Definition document #100 and other FITS information. 
# OBJECT = 'host_10trs' / object title 
# OBSERVER= 'Waszczak' / observer 
# IMGTYPE = 'object ' / observation type 
# GAIN = 2.8 / e-/adu 
# RON = 8.5 / system noise 
# DICHROIC= 'D55 ' / Dichroic 
# APERTURE= '1.5 ' / aperture (arcsecs) 
# TURRET = 'APERTURE' / turret position 
# LAMPS = '0000000 ' / lamps: D-FeAr-Hg-Ar-Ne-He-InCand 
# RFILTER = 'OPEN ' / filter wheel 
# OEXPTIME= 120. / originaly req. exposure time 
# EXPTIME = 120. / actual exposure time 
# UTSHUT = '2013-08-04T10:09:39.369' / UT shutter open 
# NAMPSXY = '1 1 ' / number of amplifiers in y x 
# CCDSUM = '1 1 ' / binning in x y 
# ASEC1 = '[1:4141,1:440]' / amplifier section 1(LL) 
# BSEC1 = '[4122:4141,1:440]' / bias section 1(LL) 
# CSEC1 = '[1:4121,1:440]' / ccd section 1(LL) 
# DSEC1 = '[1:4121,1:440]' / data section 1(LL) 
# TSEC1 = '[8:4121,1:440]' / trim section 1(LL) 
# ROISEC = '[1:4114,780:1219]' / roi section 
# DETID = 'LBNL_4Kx2K_1' / detector ID 
# DETNUM = '1 ' / Detector Number 
# DETNAM = 'LBNL_4Kx2K' / detector name 
# FPA = 'DBSP_RED2' / focal plan array 
# UTC = '216 10:09:39.4' / <elapsed days> <time-obs> 
# UT = '10:09:39.4' / time-obs 
# OBSLST = '23:14:46.1' / lst-obs 
# RA = '00:15:20.15' / Right Ascencion 
# DEC = '+17:31:49.6' / Declination 
# HOURANG = 'E01:01:18.3' / Hour angle, TCS format 
# HA = '-01:01:18.3' / Hour angle 
# AIRMASS = '1.069032' / Airmass 
# TELID = '200 ' / telescope ID 
# TELFOCUS= '39.99 mm' / focus position 
# CASSPA = '-40.00 ' / cass ring angle 
# PARALLAC= '321.85 ' / parallactic angle 
# DHE = 'SDSU Gen III' / controller info 
# CCDTEMP = '130.027 ' / detector mount temp 
# SOFTVER = '3.4 ' / software version 
# HDR_REV = '4.3 ' / gfits version 
# GCOMMENT= ' ' / comment 
# ANGLE = '24 deg 38.2 min' / Grating Angle 
# GRATING = '316/7500' / lines/mm & Blaze 
# CRVAL1 = 3280.00 / 
# CRPIX1 = 1 / 
# DATE-OBS= '2013-08-04' 
# OBSERVAT= 'palomar ' 
# TIME = '10:09:39.4' 
# OPT_PA = 142.32637381584 
# IMCMB001= 'red0066.fits' 
# NCOMBINE= 1 
# TTIME = 120. 
# TELESCOP= 'P200 ' 
# ST = '23:14:45.55' 
# EPOCH = 2013.59048151317 
# UTMIDDLE= '10:10:39.4' 
# BANDID1 = 'spectrum - background fit, weights variance, clean yes' 
# BANDID2 = 'raw - background fit, weights none, clean no' 
# BANDID3 = 'background - background fit' 
# BANDID4 = 'sigma - background fit, weights variance, clean yes' 
# APNUM1 = '1 1 108.98 118.98' 
# DC-FLAG = 0 
# DCLOG1 = 'REFSPEC1 = arc_redc.ms' 
# FLUX_Z = 1.01882900000 / 
# FLUX_NUM= 0 / 
# FLUX_OBJ= 'BD+332642' / 
# OBS_PA = -40.0000000000 /observed position angle 
# CDELT1 = 2.00000 / 
# CTYPE1 = 'LINEAR ' / 
# W_RANGE = '5320 10780' / 
# BSTAR_Z = 1.01882900000 / 
# BSTARNUM= 0 / 
# BSTAROBJ= 'BD+332642' / 
# BARYVEL = 24.2028825814 / 
# SKYSHIFT= 0.307537268697 / 
# ATMSHIFT= 1.00000000000 / 
# EXTRACT = 'optimal ' / 
# REDUCER = 'iair ' / 
# RED_DATE= 'Sun Aug 4 17:41:56 2013' /EPOCH OF REDUCTION 
# END 
# END 
# END 
# 
      3280.00  7.69700e-18
      3282.00  7.50648e-17
      3284.00  7.73752e-18
      3286.00  4.26178e-16
      3288.00  8.45381e-18
      3290.00  2.58525e-16
      3292.00  2.38773e-16
      3294.00  1.67783e-16
      3296.00  3.08556e-16
      3298.00  3.78157e-16
      3300.00 -3.76167e-17
      3302.00  2.04287e-16
      3304.00  1.16772e-16
      3306.00  2.45101e-16
      3308.00  2.24973e-16
      3310.00  1.90332e-16
      3312.00  1.54118e-16
      3314.00  2.57565e-17
      3316.00  1.29629e-16
      3318.00  2.20738e-16
      3320.00  1.48595e-16
      3322.00  1.15458e-17
      3324.00 -3.04933e-17
      3326.00  7.19825e-17
      3328.00  1.99043e-16
      3330.00  2.11782e-17
      3332.00  1.36179e-16
      3334.00  1.12083e-16
      3336.00 -5.27706e-17
      3338.00  1.28658e-16
      3340.00  1.62589e-16
      3342.00  1.15064e-16
      3344.00 -1.19508e-18
      3346.00  2.24613e-16
      3348.00 -7.71181e-17
      3350.00  1.29394e-16
      3352.00  5.68005e-17
      3354.00  2.21104e-16
      3356.00  1.98990e-16
      3358.00  7.51126e-17
      3360.00  9.72918e-17
      3362.00  5.17505e-17
      3364.00  1.19859e-16
      3366.00  1.58699e-16
      3368.00  9.86013e-17
      3370.00  1.25993e-16
      3372.00  2.94012e-17
      3374.00  1.07862e-16
      3376.00  1.14228e-16
      3378.00  1.10534e-16
      3380.00 -2.03840e-17
      3382.00  4.95734e-17
      3384.00  4.91089e-18
      3386.00 -9.02965e-18
      3388.00  4.93674e-17
      3390.00  4.53253e-17
      3392.00  7.61006e-17
      3394.00 -8.43132e-18
      3396.00  2.27638e-17
      3398.00 -3.25793e-17
      3400.00 -7.54721e-17
      3402.00  7.95777e-17
      3404.00 -5.82290e-17
      3406.00 -4.48614e-19
      3408.00  2.59547e-17
      3410.00  9.12388e-17
      3412.00  2.61386e-16
      3414.00  7.41803e-17
      3416.00 -2.03348e-17
      3418.00  1.06168e-16
      3420.00  1.40079e-17
      3422.00  9.41742e-17
      3424.00  7.03779e-17
      3426.00  1.57659e-16
      3428.00  3.03466e-17
      3430.00  1.14080e-16
      3432.00  7.81601e-17
      3434.00  9.42342e-17
      3436.00  9.21018e-17
      3438.00  2.45666e-17
      3440.00  1.38954e-17
      3442.00  1.46996e-16
      3444.00  1.26603e-16
      3446.00  3.75730e-17
      3448.00  7.46468e-17
      3450.00 -2.59894e-17
      3452.00 -8.17322e-19
      3454.00  2.04337e-17
      3456.00 -5.81740e-17
      3458.00  1.14872e-16
      3460.00  5.03444e-17
      3462.00  1.24064e-16
      3464.00  1.78878e-16
      3466.00  5.18659e-17
      3468.00  3.41244e-17
      3470.00 -8.52635e-18
      3472.00 -4.76648e-17
      3474.00  9.26851e-17
      3476.00  7.57311e-17
      3478.00  1.27568e-17
      3480.00  1.16418e-16
      3482.00  1.41498e-16
      3484.00  1.02888e-16
      3486.00  6.81071e-17
      3488.00  2.60547e-17
      3490.00  1.41356e-16
      3492.00  1.18090e-18
      3494.00  3.42054e-17
      3496.00  6.07163e-17
      3498.00 -1.50604e-17
      3500.00  8.87278e-17
      3502.00  5.87505e-17
      3504.00  4.53594e-17
      3506.00  2.25606e-17
      3508.00  2.77772e-17
      3510.00  9.19482e-17
      3512.00 -1.43083e-18
      3514.00  5.31839e-17
      3516.00  2.89570e-17
      3518.00 -2.09780e-18
      3520.00 -6.49412e-18
      3522.00  5.38308e-17
      3524.00  9.05003e-17
      3526.00  5.17760e-17
      3528.00  2.05545e-17
      3530.00 -5.24801e-18
      3532.00  1.22164e-16
      3534.00  6.30003e-17
      3536.00  3.75230e-17
      3538.00  7.38189e-17
      3540.00 -4.66210e-18
      3542.00  1.52451e-17
      3544.00  2.62388e-17
      3546.00  1.99466e-17
      3548.00  2.17981e-17
      3550.00  7.15078e-17
      3552.00  5.65825e-17
      3554.00  7.62166e-17
      3556.00  1.45052e-17
      3558.00  4.98575e-17
      3560.00  3.92104e-18
      3562.00 -2.45400e-17
      3564.00 -1.36986e-17
      3566.00  8.06133e-17
      3568.00  3.75863e-17
      3570.00  7.55822e-17
      3572.00  5.02172e-17
      3574.00  4.96001e-17
      3576.00  5.84291e-17
      3578.00  1.39522e-17
      3580.00  7.37846e-17
      3582.00  6.41232e-17
      3584.00  2.17081e-17
      3586.00  5.52412e-17
      3588.00  2.08855e-17
      3590.00  3.77067e-17
      3592.00  2.14875e-17
      3594.00  7.02101e-18
      3596.00  3.88514e-17
      3598.00  3.88572e-17
      3600.00  2.01863e-17
      3602.00  1.12555e-16
      3604.00  4.80984e-17
      3606.00  3.20877e-17
      3608.00  5.42199e-17
      3610.00  1.52945e-17
      3612.00  4.06176e-17
      3614.00 -3.77304e-18
      3616.00  6.11075e-17
      3618.00  1.25562e-17
      3620.00  5.86877e-17
      3622.00  9.64593e-17
      3624.00  4.60996e-17
      3626.00  1.27206e-17
      3628.00  4.56027e-17
      3630.00  5.40523e-17
      3632.00  3.80152e-17
      3634.00  1.97163e-17
      3636.00  7.93342e-17
      3638.00  2.46548e-17
      3640.00  1.30859e-17
      3642.00  8.10638e-17
      3644.00  5.46776e-17
      3646.00  1.73463e-17
      3648.00  7.08773e-17
      3650.00  6.23448e-18
      3652.00  8.74786e-17
      3654.00  3.72691e-17
      3656.00  1.38632e-17
      3658.00  4.49601e-17
      3660.00  3.22949e-17
      3662.00  1.14581e-17
      3664.00  2.94643e-17
      3666.00  4.80194e-17
      3668.00  4.59065e-17
      3670.00  2.92564e-17
      3672.00 -3.62882e-17
      3674.00  2.41295e-18
      3676.00  2.41518e-17
      3678.00  6.04560e-17
      3680.00  1.05057e-17
      3682.00  3.56843e-17
      3684.00  1.88636e-17
      3686.00 -2.98540e-18
      3688.00  3.83384e-17
      3690.00  1.38741e-17
      3692.00  5.02677e-17
      3694.00  8.22983e-17
      3696.00  7.08948e-17
      3698.00  5.95920e-17
      3700.00  1.47563e-17
      3702.00  3.62744e-17
      3704.00  3.58720e-18
      3706.00  2.20398e-17
      3708.00  4.02490e-17
      3710.00  2.21795e-17
      3712.00  8.12068e-17
      3714.00 -6.00608e-18
      3716.00 -1.58174e-17
      3718.00  9.54492e-18
      3720.00  4.82624e-17
      3722.00  3.42723e-17
      3724.00  7.09850e-18
      3726.00  2.15243e-17
      3728.00  3.05653e-17
      3730.00  4.18459e-17
      3732.00  4.46042e-17
      3734.00  3.70253e-17
      3736.00  6.02506e-17
      3738.00  2.09414e-17
      3740.00  5.16714e-17
      3742.00  2.85036e-17
      3744.00  3.29927e-17
      3746.00  5.71005e-17
      3748.00  1.37852e-17
      3750.00  3.81168e-17
      3752.00  6.00845e-17
      3754.00  4.91023e-17
      3756.00  3.78918e-17
      3758.00  3.19955e-17
      3760.00  2.67666e-17
      3762.00  2.57385e-18
      3764.00  2.86023e-17
      3766.00  3.41604e-17
      3768.00  1.67191e-17
      3770.00  5.77084e-17
      3772.00  2.89025e-17
      3774.00  4.07684e-17
      3776.00  4.92884e-17
      3778.00  3.50029e-17
      3780.00  5.47491e-17
      3782.00  1.81452e-17
      3784.00  4.34814e-17
      3786.00  5.23826e-17
      3788.00  3.85000e-17
      3790.00  1.06749e-17
      3792.00  4.23656e-17
      3794.00  3.73278e-17
      3796.00  2.23136e-17
      3798.00 -7.01022e-19
      3800.00  6.43125e-17
      3802.00  1.43077e-17
      3804.00  1.78702e-17
      3806.00  7.38802e-17
      3808.00  2.03233e-17
      3810.00  1.63448e-17
      3812.00  1.99298e-17
      3814.00  2.75257e-17
      3816.00  3.25869e-17
      3818.00  4.06704e-17
      3820.00  5.21959e-18
      3822.00  2.79029e-17
      3824.00  3.60456e-17
      3826.00  2.91239e-17
      3828.00  2.03433e-17
      3830.00  7.38121e-18
      3832.00  4.04663e-17
      3834.00  2.12359e-17
      3836.00  3.39462e-17
      3838.00  4.38990e-17
      3840.00  3.58698e-17
      3842.00  4.62161e-17
      3844.00  4.88853e-17
      3846.00  2.49568e-17
      3848.00  5.45865e-17
      3850.00  3.76368e-17
      3852.00  6.02097e-17
      3854.00  5.08808e-17
      3856.00  6.46230e-17
      3858.00  5.41665e-17
      3860.00  4.86632e-17
      3862.00  3.95831e-17
      3864.00  7.32047e-17
      3866.00  3.15360e-17
      3868.00  2.21819e-17
      3870.00  2.29829e-17
      3872.00  4.92680e-17
      3874.00  4.43468e-17
      3876.00  1.30745e-17
      3878.00  1.50749e-17
      3880.00  4.07380e-17
      3882.00  4.02559e-17
      3884.00  2.92688e-17
      3886.00  7.37932e-17
      3888.00  1.89227e-17
      3890.00  3.24520e-17
      3892.00  4.29128e-17
      3894.00  5.80397e-17
      3896.00  5.42452e-17
      3898.00  3.67813e-17
      3900.00  4.15056e-17
      3902.00  2.14254e-17
      3904.00  2.11810e-17
      3906.00  3.97233e-17
      3908.00 -4.86640e-18
      3910.00  2.14316e-17
      3912.00  1.91901e-17
      3914.00  5.79668e-17
      3916.00  4.44365e-17
      3918.00  6.02058e-18
      3920.00  8.04798e-18
      3922.00  3.74921e-20
      3924.00  2.42869e-17
      3926.00  2.85911e-17
      3928.00  5.45659e-17
      3930.00  1.51004e-17
      3932.00  2.06092e-17
      3934.00  3.43427e-17
      3936.00  2.07764e-17
      3938.00  4.98023e-18
      3940.00  4.58310e-17
      3942.00  3.80562e-17
      3944.00  2.40272e-17
      3946.00  1.29108e-17
      3948.00  4.15738e-17
      3950.00  5.46941e-17
      3952.00  1.21717e-17
      3954.00  5.16254e-17
      3956.00  4.45139e-17
      3958.00  4.88139e-17
      3960.00  3.33423e-17
      3962.00  5.10519e-17
      3964.00  5.84784e-17
      3966.00  3.98199e-17
      3968.00  2.90304e-17
      3970.00  3.47606e-17
      3972.00  3.60265e-17
      3974.00  5.18957e-17
      3976.00  2.99263e-17
      3978.00  1.35602e-17
      3980.00  3.06885e-17
      3982.00 -1.38255e-18
      3984.00  2.66608e-17
      3986.00  5.89234e-17
      3988.00  5.08292e-17
      3990.00  7.47198e-17
      3992.00  7.85548e-17
      3994.00  5.24991e-17
      3996.00  1.89596e-17
      3998.00  2.16326e-17
      4000.00  1.78269e-17
      4002.00  3.23404e-17
      4004.00  4.45419e-17
      4006.00  4.07607e-17
      4008.00  2.30520e-17
      4010.00  6.35369e-18
      4012.00  2.39495e-17
      4014.00  3.00097e-17
      4016.00  4.66419e-17
      4018.00  3.08040e-17
      4020.00  6.30263e-17
      4022.00  5.44464e-17
      4024.00  5.41905e-17
      4026.00  3.99689e-17
      4028.00  3.23760e-17
      4030.00  2.43782e-17
      4032.00  2.18822e-17
      4034.00  1.77939e-17
      4036.00  5.39703e-17
      4038.00  2.94568e-17
      4040.00  3.74972e-17
      4042.00  3.82589e-17
      4044.00  6.65617e-17
      4046.00  3.21843e-17
      4048.00  1.66242e-17
      4050.00  2.58980e-17
      4052.00  2.67807e-17
      4054.00  4.85677e-17
      4056.00  6.80592e-17
      4058.00  4.93523e-17
      4060.00  4.10270e-17
      4062.00  3.73619e-17
      4064.00  3.18633e-17
      4066.00  4.98426e-17
      4068.00  3.19230e-17
      4070.00  4.42959e-17
      4072.00  2.68329e-17
      4074.00  3.87064e-17
      4076.00  4.57515e-17
      4078.00  3.18107e-17
      4080.00  4.73561e-17
      4082.00  5.17657e-17
      4084.00  2.82248e-17
      4086.00  1.98499e-17
      4088.00  5.23890e-17
      4090.00  1.43751e-17
      4092.00  2.49258e-17
      4094.00  3.71057e-17
      4096.00  4.56379e-17
      4098.00  1.27725e-17
      4100.00  1.52286e-17
      4102.00  4.40729e-17
      4104.00  2.74338e-17
      4106.00  4.58071e-17
      4108.00  5.87188e-17
      4110.00  3.41889e-17
      4112.00  1.40169e-17
      4114.00 -3.53239e-17
      4116.00  6.11805e-17
      4118.00  1.66730e-17
      4120.00  8.18507e-17
      4122.00  6.37115e-17
      4124.00  4.46082e-17
      4126.00  5.45952e-17
      4128.00  5.34379e-17
      4130.00  5.26391e-17
      4132.00  4.96946e-17
      4134.00  1.51277e-17
      4136.00  3.01603e-17
      4138.00  5.32148e-17
      4140.00  6.21877e-17
      4142.00  4.44777e-17
      4144.00  5.84524e-17
      4146.00  3.14220e-17
      4148.00  2.49818e-17
      4150.00  3.76715e-17
      4152.00  6.88884e-18
      4154.00  1.00684e-17
      4156.00  5.53493e-17
      4158.00  2.56351e-17
      4160.00  2.32360e-17
      4162.00  3.92931e-17
      4164.00  6.07945e-17
      4166.00  5.24245e-17
      4168.00  3.97847e-17
      4170.00  5.07493e-17
      4172.00  4.06405e-17
      4174.00  2.62276e-17
      4176.00  6.88262e-17
      4178.00  4.75472e-17
      4180.00  4.56987e-17
      4182.00  6.49920e-17
      4184.00  4.94087e-17
      4186.00  3.42598e-17
      4188.00  6.90638e-17
      4190.00  5.74925e-17
      4192.00  5.53134e-17
      4194.00  6.61058e-17
      4196.00  2.86868e-17
      4198.00  3.39654e-17
      4200.00  4.33171e-17
      4202.00  3.71681e-17
      4204.00 -8.13999e-20
      4206.00  4.82702e-17
      4208.00  3.31270e-17
      4210.00 -1.01448e-17
      4212.00  1.55734e-17
      4214.00  4.32386e-17
      4216.00  5.36218e-17
      4218.00  2.73839e-17
      4220.00  6.54235e-18
      4222.00  4.52186e-17
      4224.00  3.83252e-17
      4226.00  3.12059e-17
      4228.00  7.92468e-17
      4230.00  4.39841e-17
      4232.00  4.59107e-17
      4234.00  4.02686e-17
      4236.00  2.03558e-17
      4238.00  5.07179e-17
      4240.00  9.16633e-18
      4242.00  2.36405e-17
      4244.00  4.09403e-17
      4246.00  8.02801e-18
      4248.00 -7.42553e-18
      4250.00  1.74673e-17
      4252.00  2.00595e-17
      4254.00  1.54811e-17
      4256.00  2.89452e-17
      4258.00  2.90527e-17
      4260.00  4.20957e-17
      4262.00  5.26342e-17
      4264.00  3.15291e-17
      4266.00  3.65907e-17
      4268.00  4.61566e-17
      4270.00  6.59507e-17
      4272.00  2.55967e-17
      4274.00  3.64325e-17
      4276.00  3.16157e-17
      4278.00  4.83122e-17
      4280.00  4.73869e-17
      4282.00  4.63118e-17
      4284.00  3.41951e-17
      4286.00  4.50716e-17
      4288.00  3.49000e-17
      4290.00  4.96896e-17
      4292.00  6.00860e-17
      4294.00  4.79070e-17
      4296.00  7.00766e-17
      4298.00  3.72515e-17
      4300.00  5.56621e-17
      4302.00  5.34763e-17
      4304.00  5.96268e-17
      4306.00  5.50944e-17
      4308.00  7.54648e-18
      4310.00  3.83639e-17
      4312.00  4.16988e-17
      4314.00  4.69769e-17
      4316.00  4.16845e-17
      4318.00  4.61952e-17
      4320.00  5.57959e-17
      4322.00  4.48245e-17
      4324.00  2.57276e-17
      4326.00  4.78944e-17
      4328.00  4.25904e-17
      4330.00  6.62125e-17
      4332.00  5.86284e-17
      4334.00  4.67019e-17
      4336.00  4.97486e-17
      4338.00  6.20479e-17
      4340.00  5.81203e-17
      4342.00  4.47990e-17
      4344.00  2.69913e-17
      4346.00  3.36780e-17
      4348.00  3.30860e-17
      4350.00  5.33827e-17
      4352.00  5.83010e-17
      4354.00  2.79665e-17
      4356.00  4.56195e-17
      4358.00  3.06166e-17
      4360.00  3.35470e-17
      4362.00  8.56561e-18
      4364.00  2.87913e-17
      4366.00  3.15317e-17
      4368.00  3.92612e-17
      4370.00  4.46280e-17
      4372.00  4.97252e-17
      4374.00  6.16843e-17
      4376.00  6.53882e-17
      4378.00  6.26921e-17
      4380.00  5.28729e-17
      4382.00  3.62986e-17
      4384.00  4.76455e-17
      4386.00  4.48432e-17
      4388.00  3.96013e-17
      4390.00  3.38016e-17
      4392.00  3.90297e-17
      4394.00  4.99594e-17
      4396.00  4.29563e-17
      4398.00  2.49178e-17
      4400.00  4.27903e-17
      4402.00  2.27608e-17
      4404.00  4.72467e-17
      4406.00  4.50948e-17
      4408.00  3.78602e-17
      4410.00  2.45222e-17
      4412.00  2.94572e-17
      4414.00  3.82108e-17
      4416.00  2.35069e-17
      4418.00  3.24133e-17
      4420.00  2.55898e-17
      4422.00  6.16774e-17
      4424.00  4.94683e-17
      4426.00  2.58944e-17
      4428.00  4.00985e-17
      4430.00  4.59876e-17
      4432.00  4.12463e-17
      4434.00  6.82124e-17
      4436.00  4.40926e-17
      4438.00  1.94547e-17
      4440.00  5.00490e-17
      4442.00  5.06719e-17
      4444.00  4.47015e-17
      4446.00  3.91113e-17
      4448.00  2.71006e-17
      4450.00  4.28475e-17
      4452.00  6.40200e-17
      4454.00  4.25083e-17
      4456.00  4.99643e-17
      4458.00  6.34405e-17
      4460.00  4.43034e-17
      4462.00  3.97836e-17
      4464.00  2.94336e-17
      4466.00  2.81814e-17
      4468.00  3.82508e-17
      4470.00  1.80031e-17
      4472.00  4.21378e-17
      4474.00  3.90243e-17
      4476.00  5.50552e-17
      4478.00  3.03508e-17
      4480.00  5.38493e-17
      4482.00  5.44711e-17
      4484.00  4.49793e-17
      4486.00  4.45588e-17
      4488.00  5.50169e-17
      4490.00  6.93622e-17
      4492.00  7.09158e-17
      4494.00  3.50858e-17
      4496.00  2.81146e-17
      4498.00  3.12524e-17
      4500.00  3.16602e-17
      4502.00  6.98233e-17
      4504.00  6.83863e-17
      4506.00  4.53233e-17
      4508.00  5.77650e-17
      4510.00  4.85978e-17
      4512.00  1.75560e-17
      4514.00  4.06589e-17
      4516.00  5.58307e-17
      4518.00  3.62218e-17
      4520.00  4.40966e-17
      4522.00  6.02622e-17
      4524.00  4.92118e-17
      4526.00  3.45667e-17
      4528.00  6.62512e-17
      4530.00  4.00868e-17
      4532.00  4.47254e-17
      4534.00  3.94366e-17
      4536.00  5.51904e-17
      4538.00  6.09485e-17
      4540.00  5.92017e-17
      4542.00  2.51029e-17
      4544.00  3.51255e-17
      4546.00  6.99179e-17
      4548.00  5.30434e-17
      4550.00  5.47646e-17
      4552.00  5.13593e-17
      4554.00  4.57518e-17
      4556.00  5.15097e-17
      4558.00  3.90333e-17
      4560.00  3.35191e-17
      4562.00  5.44885e-17
      4564.00  4.68637e-17
      4566.00  2.21389e-17
      4568.00  4.73100e-17
      4570.00  4.83054e-17
      4572.00  5.65010e-17
      4574.00  5.03291e-17
      4576.00  5.01567e-17
      4578.00  7.89571e-17
      4580.00  3.80157e-17
      4582.00  4.35991e-17
      4584.00  5.29022e-17
      4586.00  4.17906e-17
      4588.00  2.06168e-17
      4590.00  3.16709e-17
      4592.00  5.86579e-17
      4594.00  4.01158e-17
      4596.00  3.47767e-17
      4598.00  4.62193e-17
      4600.00  5.02820e-17
      4602.00  3.90084e-17
      4604.00  3.10216e-17
      4606.00  4.22778e-17
      4608.00  4.74474e-17
      4610.00  3.67787e-17
      4612.00  4.53564e-17
      4614.00  1.78985e-17
      4616.00  4.17161e-17
      4618.00  4.65494e-17
      4620.00  5.95511e-17
      4622.00  4.54759e-17
      4624.00  8.02497e-17
      4626.00  3.96402e-17
      4628.00  5.64810e-17
      4630.00  2.28308e-17
      4632.00  3.14557e-17
      4634.00  4.50754e-17
      4636.00  2.80886e-17
      4638.00  5.11443e-17
      4640.00  1.75614e-17
      4642.00  4.87936e-17
      4644.00  5.05900e-17
      4646.00  5.95356e-17
      4648.00  5.27474e-17
      4650.00  3.09067e-17
      4652.00  5.42487e-17
      4654.00  6.31440e-17
      4656.00  6.08695e-17
      4658.00  6.72283e-17
      4660.00  2.81176e-17
      4662.00  3.41416e-17
      4664.00  5.31740e-17
      4666.00  4.85193e-17
      4668.00  5.25433e-17
      4670.00  4.07140e-17
      4672.00  7.32164e-17
      4674.00  4.24528e-17
      4676.00  3.16591e-17
      4678.00  3.66196e-17
      4680.00  5.12074e-17
      4682.00  5.20264e-17
      4684.00  5.51343e-17
      4686.00  5.58357e-17
      4688.00  5.88877e-17
      4690.00  3.73480e-17
      4692.00  4.32642e-17
      4694.00  2.91599e-17
      4696.00  3.80053e-17
      4698.00  5.52594e-17
      4700.00  3.35549e-17
      4702.00  4.27726e-17
      4704.00  3.87346e-17
      4706.00  2.72406e-17
      4708.00  4.44299e-17
      4710.00  4.91754e-17
      4712.00  2.25560e-17
      4714.00  3.16229e-17
      4716.00  4.83088e-17
      4718.00  4.51252e-17
      4720.00  3.09650e-17
      4722.00  3.60145e-17
      4724.00  3.96037e-17
      4726.00  4.44360e-17
      4728.00  5.61219e-17
      4730.00  5.39556e-17
      4732.00  6.79695e-17
      4734.00  7.97479e-17
      4736.00  4.53142e-17
      4738.00  5.00990e-17
      4740.00  5.47442e-17
      4742.00  3.12757e-17
      4744.00  3.74466e-17
      4746.00  6.04766e-17
      4748.00  4.97562e-17
      4750.00  3.93901e-17
      4752.00  6.63914e-17
      4754.00  6.19591e-17
      4756.00  3.41084e-17
      4758.00  4.05117e-17
      4760.00  4.45337e-17
      4762.00  4.11191e-17
      4764.00  5.57918e-17
      4766.00  5.33482e-17
      4768.00  4.34707e-17
      4770.00  4.55912e-17
      4772.00  3.68604e-17
      4774.00  3.30547e-17
      4776.00  5.38213e-17
      4778.00  6.42404e-17
      4780.00  6.76878e-17
      4782.00  6.94428e-17
      4784.00  6.75121e-17
      4786.00  4.73355e-17
      4788.00  3.89005e-17
      4790.00  4.86085e-17
      4792.00  4.33112e-17
      4794.00  5.21802e-17
      4796.00  5.07305e-17
      4798.00  5.71811e-17
      4800.00  6.49895e-17
      4802.00  5.34664e-17
      4804.00  7.34716e-17
      4806.00  4.76656e-17
      4808.00  2.42008e-17
      4810.00  3.80087e-17
      4812.00  5.36559e-17
      4814.00  2.34259e-17
      4816.00  3.99157e-17
      4818.00  3.43905e-17
      4820.00  3.54515e-17
      4822.00  3.55136e-17
      4824.00  7.72685e-17
      4826.00  4.87327e-17
      4828.00  4.66052e-17
      4830.00  5.27660e-17
      4832.00  4.23562e-17
      4834.00  5.32324e-17
      4836.00  6.19216e-17
      4838.00  7.09062e-17
      4840.00  4.79869e-17
      4842.00  4.46124e-17
      4844.00  6.01547e-17
      4846.00  4.21183e-17
      4848.00  4.76885e-17
      4850.00  4.85552e-17
      4852.00  5.41679e-17
      4854.00  5.16088e-17
      4856.00  4.19681e-17
      4858.00  6.82348e-17
      4860.00  5.21866e-17
      4862.00  5.83498e-17
      4864.00  5.86981e-17
      4866.00  3.18484e-17
      4868.00  4.48219e-17
      4870.00  7.34622e-17
      4872.00  6.56826e-17
      4874.00  6.03159e-17
      4876.00  8.41409e-17
      4878.00  4.79445e-17
      4880.00  5.93568e-17
      4882.00  8.12174e-17
      4884.00  7.29427e-17
      4886.00  6.16154e-17
      4888.00  4.65493e-17
      4890.00  3.82698e-17
      4892.00  5.44716e-17
      4894.00  6.78016e-17
      4896.00  5.56994e-17
      4898.00  6.36995e-17
      4900.00  7.94556e-17
      4902.00  4.68718e-17
      4904.00  5.46916e-17
      4906.00  5.20316e-17
      4908.00  4.66211e-17
      4910.00  3.87925e-17
      4912.00  3.18438e-17
      4914.00  5.17383e-17
      4916.00  4.62131e-17
      4918.00  5.98721e-17
      4920.00  3.93553e-17
      4922.00  5.94274e-17
      4924.00  6.50156e-17
      4926.00  3.76023e-17
      4928.00  6.87590e-17
      4930.00  5.45617e-17
      4932.00  5.94319e-17
      4934.00  4.35111e-17
      4936.00  1.04408e-16
      4938.00  4.22426e-17
      4940.00  2.95479e-17
      4942.00  4.55511e-17
      4944.00  3.60699e-17
      4946.00  5.03763e-17
      4948.00  4.59364e-17
      4950.00  8.06704e-17
      4952.00  5.81583e-17
      4954.00  5.73668e-17
      4956.00  5.97364e-17
      4958.00  4.42112e-17
      4960.00  4.62880e-17
      4962.00  2.62661e-17
      4964.00  3.96284e-17
      4966.00  6.47062e-17
      4968.00  6.73127e-17
      4970.00  5.52682e-17
      4972.00  5.93896e-17
      4974.00  3.45127e-17
      4976.00  4.36905e-17
      4978.00  5.74043e-17
      4980.00  4.71396e-17
      4982.00  5.00175e-17
      4984.00  5.62705e-17
      4986.00  7.11641e-17
      4988.00  7.27285e-17
      4990.00  6.67221e-17
      4992.00  6.09386e-17
      4994.00  3.75655e-17
      4996.00  7.16095e-17
      4998.00  6.43308e-17
      5000.00  4.86305e-17
      5002.00  6.29989e-17
      5004.00  5.73541e-17
      5006.00  4.65126e-17
      5008.00  5.32190e-17
      5010.00  4.78493e-17
      5012.00  6.61635e-17
      5014.00  7.64030e-17
      5016.00  7.99549e-17
      5018.00  5.62380e-17
      5020.00  6.17961e-17
      5022.00  4.91702e-17
      5024.00  7.55594e-17
      5026.00  5.20498e-17
      5028.00  6.46403e-17
      5030.00  4.30798e-17
      5032.00  7.65852e-17
      5034.00  6.27535e-17
      5036.00  3.93712e-17
      5038.00  4.48754e-17
      5040.00  2.58484e-17
      5042.00  4.95119e-17
      5044.00  6.31865e-17
      5046.00  6.31976e-17
      5048.00  4.80594e-17
      5050.00  6.07077e-17
      5052.00  4.27835e-17
      5054.00  4.97884e-17
      5056.00  5.44670e-17
      5058.00  3.27446e-17
      5060.00  3.21144e-17
      5062.00  5.70449e-17
      5064.00  4.55884e-17
      5066.00  8.02486e-17
      5068.00  6.01686e-17
      5070.00  5.87772e-17
      5072.00  2.45447e-17
      5074.00  4.52399e-17
      5076.00  7.13189e-17
      5078.00  6.04700e-17
      5080.00  4.59958e-17
      5082.00  4.63732e-17
      5084.00  8.52693e-17
      5086.00  6.02122e-17
      5088.00  6.44775e-17
      5090.00  4.67573e-17
      5092.00  6.72528e-17
      5094.00  8.12276e-17
      5096.00  7.31587e-17
      5098.00  4.86237e-17
      5100.00  3.51432e-17
      5102.00  5.99598e-17
      5104.00  7.09369e-17
      5106.00  6.53648e-17
      5108.00  5.20773e-17
      5110.00  3.34918e-17
      5112.00  4.95299e-17
      5114.00  5.05528e-17
      5116.00  7.21829e-17
      5118.00  6.61800e-17
      5120.00  5.29979e-17
      5122.00  4.88641e-17
      5124.00  5.51778e-17
      5126.00  5.76337e-17
      5128.00  4.81128e-17
      5130.00  7.21983e-17
      5132.00  6.36528e-17
      5134.00  5.65556e-17
      5136.00  6.62737e-17
      5138.00  6.13757e-17
      5140.00  5.52444e-17
      5142.00  6.08360e-17
      5144.00  5.48357e-17
      5146.00  2.99917e-17
      5148.00  4.34816e-17
      5150.00  5.89958e-17
      5152.00  6.32874e-17
      5154.00  6.87875e-17
      5156.00  2.83487e-17
      5158.00  4.46891e-17
      5160.00  3.37702e-17
      5162.00  3.81960e-17
      5164.00  3.90928e-17
      5166.00  6.07021e-17
      5168.00  6.49321e-17
      5170.00  4.53898e-17
      5172.00  7.23014e-17
      5174.00  4.27357e-17
      5176.00  6.68264e-17
      5178.00  5.91278e-17
      5180.00  7.52209e-17
      5182.00  5.73000e-17
      5184.00  7.01475e-17
      5186.00  6.32608e-17
      5188.00  2.95486e-17
      5190.00  4.92392e-17
      5192.00  3.75531e-17
      5194.00  3.67048e-17
      5196.00  2.90058e-17
      5198.00  3.63798e-17
      5200.00  6.14587e-17
      5202.00  6.47701e-17
      5204.00  8.02691e-17
      5206.00  5.16925e-17
      5208.00  3.31489e-17
      5210.00  5.45296e-17
      5212.00  1.67363e-17
      5214.00  4.61179e-17
      5216.00  3.66872e-17
      5218.00  6.94283e-17
      5220.00  5.29354e-17
      5222.00  5.70201e-17
      5224.00  5.13175e-17
      5226.00  5.20547e-17
      5228.00  4.15011e-17
      5230.00  8.68463e-17
      5232.00  6.07177e-17
      5234.00  4.36533e-17
      5236.00  4.01437e-17
      5238.00  5.70923e-17
      5240.00  5.98534e-17
      5242.00  5.80670e-17
      5244.00  4.79229e-17
      5246.00  5.61054e-17
      5248.00  2.37806e-17
      5250.00  6.32868e-17
      5252.00  3.56597e-17
      5254.00  3.94214e-17
      5256.00  5.56106e-17
      5258.00  5.86532e-17
      5260.00  5.14678e-17
      5262.00  2.70092e-17
      5264.00  4.34693e-17
      5266.00  4.84585e-17
      5268.00  4.46266e-17
      5270.00  6.13507e-17
      5272.00  5.90450e-17
      5274.00  3.33304e-17
      5276.00  6.25706e-17
      5278.00  5.70239e-17
      5280.00  4.37598e-17
      5282.00  3.34539e-17
      5284.00  5.16473e-17
      5286.00  2.77091e-17
      5288.00  4.66688e-17
      5290.00  5.70164e-17
      5292.00  7.52757e-17
      5294.00  5.27363e-17
      5296.00  6.39959e-17
      5298.00  5.66758e-17
      5300.00  4.54291e-17
      5302.00  5.15090e-17
      5304.00  5.93743e-17
      5306.00  6.52154e-17
      5308.00  5.96321e-17
      5310.00  7.10389e-17
      5312.00  5.55127e-17
      5314.00  7.40831e-17
      5316.00  5.98373e-17
      5318.00  6.78090e-17
      5320.00  5.33549e-17
      5322.00  5.02934e-17
      5324.00  5.12634e-17
      5326.00  7.85141e-17
      5328.00  5.71282e-17
      5330.00  5.90785e-17
      5332.00  3.53334e-17
      5334.00  5.87570e-17
      5336.00  5.12457e-17
      5338.00  8.39662e-17
      5340.00  3.28366e-17
      5342.00  6.28233e-17
      5344.00  5.31365e-17
      5346.00  7.72846e-17
      5348.00  5.26612e-17
      5350.00  2.80704e-17
      5352.00  6.05637e-17
      5354.00  4.16841e-17
      5356.00  5.28781e-17
      5358.00  9.82550e-17
      5360.00  7.32168e-17
      5362.00  1.12057e-16
      5364.00  3.63245e-17
      5366.00  5.12815e-17
      5368.00  4.69974e-17
      5370.00  5.17854e-17
      5372.00  8.26885e-17
      5374.00  6.25876e-17
      5376.00  3.64706e-17
      5378.00  2.94075e-17
      5380.00  7.13148e-17
      5382.00  4.49941e-17
      5384.00  7.22740e-17
      5386.00  5.05226e-17
      5388.00  3.81285e-17
      5390.00  4.14884e-17
      5392.00  2.49168e-17
      5394.00  3.93896e-17
      5396.00  4.98315e-17
      5398.00  4.83646e-17
      5400.00  4.61642e-17
      5402.00  4.29498e-17
      5404.00  7.72787e-17
      5406.00  5.47180e-17
      5408.00  8.25467e-17
      5410.00  7.36982e-17
      5412.00  2.89565e-17
      5414.00  4.79700e-17
      5416.00  1.04012e-16
      5418.00  9.96670e-17
      5420.00  3.56956e-17
      5422.00  5.76271e-17
      5424.00  5.44483e-17
      5426.00  8.94029e-17
      5428.00  8.55176e-17
      5430.00  7.80412e-17
      5432.00  7.16680e-17
      5434.00  8.24341e-17
      5436.00  9.03482e-17
      5438.00  9.72331e-17
      5440.00  1.70036e-17
      5442.00  3.61962e-17
      5444.00  7.17947e-17
      5446.00  5.56720e-17
      5448.00  2.60893e-17
      5450.00  8.28584e-17
      5452.00  8.15546e-17
      5454.00  6.15288e-17
      5456.00  6.87470e-17
      5458.00  9.22352e-17
      5460.00  7.96106e-17
      5462.00  4.61020e-17
      5464.00  7.09698e-17
      5466.00  7.63971e-17
      5468.00  1.31844e-16
      5470.00  6.27907e-17
      5472.00  8.52520e-17
      5474.00  9.32720e-17
      5476.00  7.26974e-17
      5478.00  6.07662e-17
      5480.00  4.18482e-17
      5482.00  7.64939e-17
      5484.00  7.71591e-17
      5486.00  8.99145e-17
      5488.00  4.56996e-17
      5490.00  5.52213e-17
      5492.00  1.08820e-16
      5494.00  1.02462e-16
      5496.00  4.28277e-17
      5498.00  4.19223e-17
      5500.00  1.04905e-16
      5502.00  3.00750e-17
      5504.00  7.58969e-17
      5506.00  7.23164e-17
      5508.00  8.86411e-17
      5510.00  6.89158e-17
      5512.00  4.86017e-17
      5514.00  1.07906e-16
      5516.00  4.83206e-17
      5518.00  5.51899e-17
      5520.00  7.17387e-17
      5522.00  7.22244e-17
      5524.00  1.01363e-16
      5526.00  9.48666e-17
      5528.00  5.30724e-17
      5530.00  7.31085e-17
      5532.00  6.22502e-17
      5534.00  6.85326e-17
      5536.00  6.80109e-17
      5538.00  4.51059e-17
      5540.00  5.66519e-17
      5542.00  6.15437e-17
      5544.00  6.45474e-17
      5546.00  4.56019e-17
      5548.00  4.67220e-17
      5550.00  6.25677e-17
      5552.00  9.29070e-17
      5554.00  1.01188e-16
      5556.00  6.39484e-17
      5558.00  4.91188e-17
      5560.00  4.16090e-17
      5562.00  7.35533e-17
      5564.00  5.91889e-17
      5566.00  4.19973e-17
      5568.00  6.19197e-17
      5570.00  6.14076e-17
      5572.00  7.04235e-17
      5574.00  2.98646e-17
      5576.00  7.65802e-17
      5578.00  1.32258e-16
      5580.00  8.48844e-17
      5582.00  2.52631e-17
      5584.00  3.08065e-17
      5586.00  5.52054e-17
      5588.00  5.21065e-17
      5590.00  6.35073e-17
      5592.00  2.84443e-17
      5594.00  7.03046e-17
      5596.00  3.51022e-17
      5598.00  7.99576e-17
      5600.00  3.55136e-17
      5602.00  8.84163e-17
      5604.00  7.43921e-17
      5606.00  1.06638e-16
      5608.00  5.85060e-17
      5610.00  7.50891e-17
      5612.00  8.36800e-17
      5614.00  6.66740e-17
      5616.00  7.00599e-17
      5618.00  1.02963e-16
      5620.00  9.98828e-17
      5622.00  4.49959e-17
      5624.00  6.80108e-17
      5626.00  4.44794e-17
      5628.00  5.87844e-17
      5630.00  5.52957e-17
      5632.00  6.39310e-17
      5634.00  5.51687e-17
      5636.00  4.79850e-17
      5638.00  5.34957e-17
      5640.00  5.64965e-17
      5642.00  6.00099e-17
      5644.00  7.87969e-17
      5646.00  5.41570e-17
      5648.00  5.20279e-17
      5650.00  5.93361e-17
      5652.00  7.42644e-17
      5654.00  5.00148e-17
      5656.00  5.80761e-17
      5658.00  6.26055e-17
      5660.00  7.63836e-17
      5662.00  8.39243e-17
      5664.00  7.72062e-17
      5666.00  7.33275e-17
      5668.00  9.83988e-17
      5670.00  8.53727e-17
      5672.00  2.85225e-17
      5674.00  3.39787e-17
      5676.00  7.21444e-17
      5678.00  8.54941e-17
      5680.00  8.60134e-17
      5682.00  6.73600e-17
      5684.00  6.63049e-17
      5686.00  7.66352e-17
      5688.00  8.40870e-17
      5690.00  7.64559e-17
      5692.00  7.92432e-17
      5694.00  6.64352e-17
      5696.00  6.31069e-17
      5698.00  4.33860e-17
      5700.00  7.47175e-17
      5702.00  9.07282e-17
      5704.00  6.55612e-17
      5706.00  8.07906e-17
      5708.00  2.07723e-17
      5710.00  3.45978e-17
      5712.00  5.55157e-17
      5714.00  9.32010e-17
      5716.00  7.36328e-17
      5718.00  4.95883e-17
      5720.00  7.49631e-17
      5722.00  5.73255e-17
      5724.00  4.53497e-17
      5726.00  6.23278e-17
      5728.00  6.86320e-17
      5730.00  5.74594e-17
      5732.00  6.98689e-17
      5734.00  5.96303e-17
      5736.00  8.54836e-17
      5738.00  3.92809e-17
      5740.00  6.28126e-17
      5742.00  6.87116e-17
      5744.00  7.17456e-17
      5746.00  1.08769e-16
      5748.00  7.51471e-17
      5750.00  7.75466e-17
      5752.00  5.95956e-17
      5754.00  8.79498e-17
      5756.00  1.00761e-16
      5758.00  7.37185e-17
      5760.00  7.59588e-17
      5762.00  7.30448e-17
      5764.00  7.11388e-17
      5766.00  6.76988e-17
      5768.00  5.39012e-17
      5770.00  6.55806e-17
      5772.00  7.44511e-17
      5774.00  7.01002e-17
      5776.00  6.49788e-17
      5778.00  7.70264e-17
      5780.00  8.09803e-17
      5782.00  4.87150e-17
      5784.00  5.20568e-17
      5786.00  7.34714e-17
      5788.00  6.57634e-17
      5790.00  7.04693e-17
      5792.00  6.67855e-17
      5794.00  7.98984e-17
      5796.00  8.10229e-17
      5798.00  7.24725e-17
      5800.00  6.37890e-17
      5802.00  6.91734e-17
      5804.00  8.21705e-17
      5806.00  9.36835e-17
      5808.00  9.31486e-17
      5810.00  6.70524e-17
      5812.00  8.26408e-17
      5814.00  5.44879e-17
      5816.00  5.02683e-17
      5818.00  7.34316e-17
      5820.00  6.49657e-17
      5822.00  9.74901e-17
      5824.00  6.72332e-17
      5826.00  8.16529e-17
      5828.00  7.14931e-17
      5830.00  8.40605e-17
      5832.00  5.80095e-17
      5834.00  9.66118e-17
      5836.00  7.49765e-17
      5838.00  7.69980e-17
      5840.00  9.99134e-17
      5842.00  7.61504e-17
      5844.00  8.14080e-17
      5846.00  6.55254e-17
      5848.00  6.16648e-17
      5850.00  7.08001e-17
      5852.00  6.45804e-17
      5854.00  6.24587e-17
      5856.00  3.90285e-17
      5858.00  5.04484e-17
      5860.00  3.05393e-17
      5862.00  3.36481e-17
      5864.00  5.68319e-17
      5866.00  8.46172e-17
      5868.00  7.61436e-17
      5870.00  6.57894e-17
      5872.00  6.24216e-17
      5874.00  6.17853e-17
      5876.00  8.10892e-17
      5878.00  7.34936e-17
      5880.00  8.28815e-17
      5882.00  8.83059e-17
      5884.00  1.03856e-16
      5886.00  7.16197e-17
      5888.00  7.09916e-17
      5890.00  8.56107e-17
      5892.00  8.47805e-17
      5894.00  1.00444e-16
      5896.00  4.97055e-17
      5898.00  2.10440e-17
      5900.00  5.94392e-17
      5902.00  9.09021e-17
      5904.00  8.33284e-17
      5906.00  6.09431e-17
      5908.00  8.01778e-17
      5910.00  7.12895e-17
      5912.00  7.73325e-17
      5914.00  9.47666e-17
      5916.00  8.55867e-17
      5918.00  6.44654e-17
      5920.00  8.66703e-17
      5922.00  6.70068e-17
      5924.00  7.46474e-17
      5926.00  7.14597e-17
      5928.00  4.40142e-17
      5930.00  8.06698e-17
      5932.00  1.01712e-16
      5934.00  8.14359e-17
      5936.00  5.47449e-17
      5938.00  8.78280e-17
      5940.00  8.31316e-17
      5942.00  6.87382e-17
      5944.00  6.46597e-17
      5946.00  6.86038e-17
      5948.00  4.73954e-17
      5950.00  1.02684e-16
      5952.00  8.55847e-17
      5954.00  4.70544e-17
      5956.00  4.59601e-17
      5958.00  7.33351e-17
      5960.00  8.33593e-17
      5962.00  7.21667e-17
      5964.00  6.51066e-17
      5966.00  6.52489e-17
      5968.00  9.09128e-17
      5970.00  9.39235e-17
      5972.00  6.88366e-17
      5974.00  6.45991e-17
      5976.00  5.57922e-17
      5978.00  7.49513e-17
      5980.00  7.84047e-17
      5982.00  7.66360e-17
      5984.00  6.32653e-17
      5986.00  7.73877e-17
      5988.00  9.28152e-17
      5990.00  7.82559e-17
      5992.00  7.08438e-17
      5994.00  4.53113e-17
      5996.00  8.10971e-17
      5998.00  5.87604e-17
      6000.00  6.31150e-17
      6002.00  7.36283e-17
      6004.00  6.64828e-17
      6006.00  6.89920e-17
      6008.00  8.03237e-17
      6010.00  6.91630e-17
      6012.00  7.80096e-17
      6014.00  6.73387e-17
      6016.00  4.03374e-17
      6018.00  6.27664e-17
      6020.00  9.26417e-17
      6022.00  6.42560e-17
      6024.00  6.54101e-17
      6026.00  4.43841e-17
      6028.00  5.69455e-17
      6030.00  5.36232e-17
      6032.00  8.25802e-17
      6034.00  9.22179e-17
      6036.00  8.38780e-17
      6038.00  6.60133e-17
      6040.00  6.32799e-17
      6042.00  5.50097e-17
      6044.00  3.77837e-17
      6046.00  4.68695e-17
      6048.00  8.70015e-17
      6050.00  8.15391e-17
      6052.00  5.43517e-17
      6054.00  7.58928e-17
      6056.00  8.13471e-17
      6058.00  8.03345e-17
      6060.00  7.13430e-17
      6062.00  6.58278e-17
      6064.00  7.79452e-17
      6066.00  8.50688e-17
      6068.00  5.90504e-17
      6070.00  6.20536e-17
      6072.00  7.54790e-17
      6074.00  9.88832e-17
      6076.00  7.83276e-17
      6078.00  7.79450e-17
      6080.00  6.99671e-17
      6082.00  7.05965e-17
      6084.00  6.93349e-17
      6086.00  8.69495e-17
      6088.00  7.18325e-17
      6090.00  7.39085e-17
      6092.00  8.15433e-17
      6094.00  9.51395e-17
      6096.00  6.44002e-17
      6098.00  6.95953e-17
      6100.00  6.80646e-17
      6102.00  5.24297e-17
      6104.00  8.12310e-17
      6106.00  5.75543e-17
      6108.00  6.21301e-17
      6110.00  7.36846e-17
      6112.00  5.33508e-17
      6114.00  7.18497e-17
      6116.00  8.83337e-17
      6118.00  8.31238e-17
      6120.00  6.37076e-17
      6122.00  7.68911e-17
      6124.00  9.68081e-17
      6126.00  8.00205e-17
      6128.00  6.53923e-17
      6130.00  4.29384e-17
      6132.00  6.71895e-17
      6134.00  7.89795e-17
      6136.00  5.04045e-17
      6138.00  7.32975e-17
      6140.00  7.43407e-17
      6142.00  7.00570e-17
      6144.00  6.13764e-17
      6146.00  6.90762e-17
      6148.00  4.33214e-17
      6150.00  4.08500e-17
      6152.00  7.32062e-17
      6154.00  7.83203e-17
      6156.00  6.04689e-17
      6158.00  5.91406e-17
      6160.00  5.65017e-17
      6162.00  7.95121e-17
      6164.00  7.57019e-17
      6166.00  8.36998e-17
      6168.00  8.77446e-17
      6170.00  8.90550e-17
      6172.00  1.18701e-16
      6174.00  8.11546e-17
      6176.00  8.34792e-17
      6178.00  8.13791e-17
      6180.00  6.05260e-17
      6182.00  5.80703e-17
      6184.00  5.69704e-17
      6186.00  8.47963e-17
      6188.00  5.57941e-17
      6190.00  6.97410e-17
      6192.00  6.10757e-17
      6194.00  7.64480e-17
      6196.00  7.62884e-17
      6198.00  7.04345e-17
      6200.00  5.90082e-17
      6202.00  7.10778e-17
      6204.00  8.31592e-17
      6206.00  7.96202e-17
      6208.00  5.83425e-17
      6210.00  6.32530e-17
      6212.00  6.85305e-17
      6214.00  7.42765e-17
      6216.00  5.22745e-17
      6218.00  4.69241e-17
      6220.00  4.50977e-17
      6222.00  8.43514e-17
      6224.00  7.98974e-17
      6226.00  6.35401e-17
      6228.00  5.04560e-17
      6230.00  6.78870e-17
      6232.00  6.33900e-17
      6234.00  7.40658e-17
      6236.00  5.05539e-17
      6238.00  5.95337e-17
      6240.00  6.78169e-17
      6242.00  8.96741e-17
      6244.00  8.54181e-17
      6246.00  7.34834e-17
      6248.00  8.15258e-17
      6250.00  8.38728e-17
      6252.00  7.69301e-17
      6254.00  8.97302e-17
      6256.00  7.74515e-17
      6258.00  7.10409e-17
      6260.00  8.69528e-17
      6262.00  8.03072e-17
      6264.00  7.54635e-17
      6266.00  6.10931e-17
      6268.00  6.09737e-17
      6270.00  7.31217e-17
      6272.00  8.26452e-17
      6274.00  7.10934e-17
      6276.00  7.69185e-17
      6278.00  4.02094e-17
      6280.00  7.14627e-17
      6282.00  9.04209e-17
      6284.00  6.82896e-17
      6286.00  6.77266e-17
      6288.00  8.92056e-17
      6290.00  9.03641e-17
      6292.00  7.98625e-17
      6294.00  6.90676e-17
      6296.00  6.08309e-17
      6298.00  7.51592e-17
      6300.00  6.11666e-17
      6302.00  5.08960e-17
      6304.00  6.29886e-17
      6306.00  6.10649e-17
      6308.00  5.53913e-17
      6310.00  5.14595e-17
      6312.00  4.72453e-17
      6314.00  3.86588e-17
      6316.00  4.87087e-17
      6318.00  4.51041e-17
      6320.00  7.59918e-17
      6322.00  8.16557e-17
      6324.00  7.85752e-17
      6326.00  7.24314e-17
      6328.00  7.32366e-17
      6330.00  7.65704e-17
      6332.00  4.63284e-17
      6334.00  6.76717e-17
      6336.00  6.39191e-17
      6338.00  7.28562e-17
      6340.00  7.30796e-17
      6342.00  7.25113e-17
      6344.00  7.40158e-17
      6346.00  5.88673e-17
      6348.00  7.60716e-17
      6350.00  6.56777e-17
      6352.00  7.43568e-17
      6354.00  6.97115e-17
      6356.00  4.50330e-17
      6358.00  6.33405e-17
      6360.00  7.25953e-17
      6362.00  6.57267e-17
      6364.00  5.90945e-17
      6366.00  7.30647e-17
      6368.00  5.94129e-17
      6370.00  7.26450e-17
      6372.00  5.42250e-17
      6374.00  6.96705e-17
      6376.00  7.12967e-17
      6378.00  6.40657e-17
      6380.00  6.61630e-17
      6382.00  8.22315e-17
      6384.00  4.98321e-17
      6386.00  6.32930e-17
      6388.00  7.96450e-17
      6390.00  7.65502e-17
      6392.00  8.37256e-17
      6394.00  7.05466e-17
      6396.00  7.84592e-17
      6398.00  6.95829e-17
      6400.00  7.21788e-17
      6402.00  4.81414e-17
      6404.00  6.40114e-17
      6406.00  8.03742e-17
      6408.00  6.29972e-17
      6410.00  7.52326e-17
      6412.00  8.01533e-17
      6414.00  7.34593e-17
      6416.00  7.22159e-17
      6418.00  6.58627e-17
      6420.00  8.07403e-17
      6422.00  6.90499e-17
      6424.00  5.72649e-17
      6426.00  5.15477e-17
      6428.00  7.41982e-17
      6430.00  8.45760e-17
      6432.00  7.03922e-17
      6434.00  6.47882e-17
      6436.00  7.85129e-17
      6438.00  6.05492e-17
      6440.00  8.98925e-17
      6442.00  9.48198e-17
      6444.00  7.77256e-17
      6446.00  6.52430e-17
      6448.00  4.62460e-17
      6450.00  6.07356e-17
      6452.00  7.77304e-17
      6454.00  6.91243e-17
      6456.00  6.81850e-17
      6458.00  6.76094e-17
      6460.00  7.05496e-17
      6462.00  5.75649e-17
      6464.00  5.15492e-17
      6466.00  8.69622e-17
      6468.00  8.10549e-17
      6470.00  8.02207e-17
      6472.00  8.23405e-17
      6474.00  6.44822e-17
      6476.00  7.36312e-17
      6478.00  7.52684e-17
      6480.00  7.89092e-17
      6482.00  9.01139e-17
      6484.00  5.10662e-17
      6486.00  7.58752e-17
      6488.00  8.68299e-17
      6490.00  8.29011e-17
      6492.00  6.14885e-17
      6494.00  6.72526e-17
      6496.00  9.02562e-17
      6498.00  7.72612e-17
      6500.00  9.41523e-17
      6502.00  7.87648e-17
      6504.00  7.26837e-17
      6506.00  6.74656e-17
      6508.00  7.20145e-17
      6510.00  9.11860e-17
      6512.00  6.42689e-17
      6514.00  6.23609e-17
      6516.00  6.42189e-17
      6518.00  8.30598e-17
      6520.00  7.63035e-17
      6522.00  6.54302e-17
      6524.00  6.55546e-17
      6526.00  8.09050e-17
      6528.00  9.26675e-17
      6530.00  7.49305e-17
      6532.00  6.51984e-17
      6534.00  6.63190e-17
      6536.00  7.90606e-17
      6538.00  6.96105e-17
      6540.00  6.82844e-17
      6542.00  6.12450e-17
      6544.00  5.17260e-17
      6546.00  8.59243e-17
      6548.00  7.01923e-17
      6550.00  6.89803e-17
      6552.00  7.44836e-17
      6554.00  7.05061e-17
      6556.00  8.38674e-17
      6558.00  8.77525e-17
      6560.00  9.40995e-17
      6562.00  8.73287e-17
      6564.00  6.74913e-17
      6566.00  7.27331e-17
      6568.00  8.18035e-17
      6570.00  7.87459e-17
      6572.00  7.23381e-17
      6574.00  6.56250e-17
      6576.00  7.70151e-17
      6578.00  8.67216e-17
      6580.00  8.88300e-17
      6582.00  8.01465e-17
      6584.00  5.28944e-17
      6586.00  6.66652e-17
      6588.00  6.89250e-17
      6590.00  6.10961e-17
      6592.00  5.06630e-17
      6594.00  5.49230e-17
      6596.00  8.15907e-17
      6598.00  7.15635e-17
      6600.00  6.41877e-17
      6602.00  5.84123e-17
      6604.00  7.90388e-17
      6606.00  8.81287e-17
      6608.00  8.00626e-17
      6610.00  7.49198e-17
      6612.00  7.34280e-17
      6614.00  7.26478e-17
      6616.00  9.04362e-17
      6618.00  8.35797e-17
      6620.00  5.99968e-17
      6622.00  7.21785e-17
      6624.00  6.75004e-17
      6626.00  6.71251e-17
      6628.00  6.29607e-17
      6630.00  5.74517e-17
      6632.00  8.58152e-17
      6634.00  8.34076e-17
      6636.00  8.66800e-17
      6638.00  7.23140e-17
      6640.00  7.13343e-17
      6642.00  7.56622e-17
      6644.00  7.47246e-17
      6646.00  8.49500e-17
      6648.00  9.89569e-17
      6650.00  8.00157e-17
      6652.00  6.54691e-17
      6654.00  7.21674e-17
      6656.00  6.57749e-17
      6658.00  6.57809e-17
      6660.00  7.20179e-17
      6662.00  5.49939e-17
      6664.00  7.08462e-17
      6666.00  9.07054e-17
      6668.00  6.88891e-17
      6670.00  4.61334e-17
      6672.00  9.38791e-17
      6674.00  7.83676e-17
      6676.00  7.50138e-17
      6678.00  6.84634e-17
      6680.00  8.18549e-17
      6682.00  9.22125e-17
      6684.00  7.17039e-17
      6686.00  6.39838e-17
      6688.00  7.58448e-17
      6690.00  8.40882e-17
      6692.00  6.80954e-17
      6694.00  7.54657e-17
      6696.00  7.47823e-17
      6698.00  9.12744e-17
      6700.00  8.09526e-17
      6702.00  8.43709e-17
      6704.00  8.12968e-17
      6706.00  6.12840e-17
      6708.00  6.52742e-17
      6710.00  7.26272e-17
      6712.00  7.09346e-17
      6714.00  8.81793e-17
      6716.00  7.05996e-17
      6718.00  7.09572e-17
      6720.00  7.25578e-17
      6722.00  8.13617e-17
      6724.00  6.99855e-17
      6726.00  6.76866e-17
      6728.00  5.97585e-17
      6730.00  7.21702e-17
      6732.00  8.92695e-17
      6734.00  7.09213e-17
      6736.00  5.58026e-17
      6738.00  7.11350e-17
      6740.00  8.41014e-17
      6742.00  7.33137e-17
      6744.00  7.14203e-17
      6746.00  6.48884e-17
      6748.00  7.74019e-17
      6750.00  8.73008e-17
      6752.00  6.88162e-17
      6754.00  6.69027e-17
      6756.00  6.81327e-17
      6758.00  7.37209e-17
      6760.00  8.64850e-17
      6762.00  8.98723e-17
      6764.00  7.47659e-17
      6766.00  6.22010e-17
      6768.00  7.01056e-17
      6770.00  7.60910e-17
      6772.00  8.18557e-17
      6774.00  7.83620e-17
      6776.00  6.60972e-17
      6778.00  7.50584e-17
      6780.00  8.04319e-17
      6782.00  7.57713e-17
      6784.00  9.11793e-17
      6786.00  8.30465e-17
      6788.00  7.94717e-17
      6790.00  8.60815e-17
      6792.00  7.23972e-17
      6794.00  8.22376e-17
      6796.00  8.46643e-17
      6798.00  6.96224e-17
      6800.00  6.95488e-17
      6802.00  8.82340e-17
      6804.00  8.44519e-17
      6806.00  8.83186e-17
      6808.00  7.62397e-17
      6810.00  6.13882e-17
      6812.00  7.50382e-17
      6814.00  6.48006e-17
      6816.00  8.19507e-17
      6818.00  8.73978e-17
      6820.00  7.02823e-17
      6822.00  6.66686e-17
      6824.00  6.71421e-17
      6826.00  7.71418e-17
      6828.00  6.13023e-17
      6830.00  7.95887e-17
      6832.00  7.35728e-17
      6834.00  7.32222e-17
      6836.00  7.61440e-17
      6838.00  7.24595e-17
      6840.00  6.73563e-17
      6842.00  7.07543e-17
      6844.00  7.98564e-17
      6846.00  7.59581e-17
      6848.00  7.23508e-17
      6850.00  7.48037e-17
      6852.00  8.31492e-17
      6854.00  6.45824e-17
      6856.00  8.14868e-17
      6858.00  7.70739e-17
      6860.00  8.27495e-17
      6862.00  8.51342e-17
      6864.00  7.23685e-17
      6866.00  6.23033e-17
      6868.00  6.59649e-17
      6870.00  7.49398e-17
      6872.00  5.86321e-17
      6874.00  6.80990e-17
      6876.00  6.64963e-17
      6878.00  8.10955e-17
      6880.00  8.10177e-17
      6882.00  7.47844e-17
      6884.00  7.50789e-17
      6886.00  9.06932e-17
      6888.00  9.64177e-17
      6890.00  7.01311e-17
      6892.00  8.83406e-17
      6894.00  9.49058e-17
      6896.00  6.98126e-17
      6898.00  6.63018e-17
      6900.00  7.19795e-17
      6902.00  8.66548e-17
      6904.00  8.40041e-17
      6906.00  4.96733e-17
      6908.00  5.18909e-17
      6910.00  7.32748e-17
      6912.00  6.47053e-17
      6914.00  6.21079e-17
      6916.00  7.26015e-17
      6918.00  6.28884e-17
      6920.00  7.52454e-17
      6922.00  8.28223e-17
      6924.00  7.13128e-17
      6926.00  7.48415e-17
      6928.00  7.84983e-17
      6930.00  8.54312e-17
      6932.00  9.56565e-17
      6934.00  8.58600e-17
      6936.00  7.03747e-17
      6938.00  8.69961e-17
      6940.00  8.92476e-17
      6942.00  8.16156e-17
      6944.00  7.01323e-17
      6946.00  6.29699e-17
      6948.00  7.94257e-17
      6950.00  6.89277e-17
      6952.00  9.55266e-17
      6954.00  7.54425e-17
      6956.00  7.32032e-17
      6958.00  6.08348e-17
      6960.00  7.22888e-17
      6962.00  7.97400e-17
      6964.00  7.54237e-17
      6966.00  9.39814e-17
      6968.00  8.35273e-17
      6970.00  9.61382e-17
      6972.00  7.91408e-17
      6974.00  8.61605e-17
      6976.00  8.47029e-17
      6978.00  8.81631e-17
      6980.00  9.89475e-17
      6982.00  9.30091e-17
      6984.00  8.11497e-17
      6986.00  9.48841e-17
      6988.00  9.57882e-17
      6990.00  8.40776e-17
      6992.00  1.01774e-16
      6994.00  9.91262e-17
      6996.00  9.20596e-17
      6998.00  1.05216e-16
      7000.00  9.21521e-17
      7002.00  9.21814e-17
      7004.00  6.76717e-17
      7006.00  7.97928e-17
      7008.00  9.62748e-17
      7010.00  1.06690e-16
      7012.00  1.07687e-16
      7014.00  7.97433e-17
      7016.00  7.70123e-17
      7018.00  8.95868e-17
      7020.00  1.06561e-16
      7022.00  1.43890e-16
      7024.00  1.81765e-16
      7026.00  2.19306e-16
      7028.00  2.05855e-16
      7030.00  1.57229e-16
      7032.00  1.11550e-16
      7034.00  7.65865e-17
      7036.00  7.02261e-17
      7038.00  9.70704e-17
      7040.00  8.89084e-17
      7042.00  9.23527e-17
      7044.00  1.08552e-16
      7046.00  1.39731e-16
      7048.00  1.52668e-16
      7050.00  1.49135e-16
      7052.00  1.20737e-16
      7054.00  8.21977e-17
      7056.00  9.93096e-17
      7058.00  9.03506e-17
      7060.00  8.70926e-17
      7062.00  8.20981e-17
      7064.00  7.90020e-17
      7066.00  6.18258e-17
      7068.00  8.47176e-17
      7070.00  8.21814e-17
      7072.00  8.46149e-17
      7074.00  8.42261e-17
      7076.00  1.01174e-16
      7078.00  1.04411e-16
      7080.00  8.80343e-17
      7082.00  8.86164e-17
      7084.00  1.02716e-16
      7086.00  8.93322e-17
      7088.00  7.09822e-17
      7090.00  8.50905e-17
      7092.00  9.08755e-17
      7094.00  7.71091e-17
      7096.00  8.69674e-17
      7098.00  8.80632e-17
      7100.00  8.49722e-17
      7102.00  7.38462e-17
      7104.00  7.46968e-17
      7106.00  9.70152e-17
      7108.00  8.54767e-17
      7110.00  8.49563e-17
      7112.00  7.81875e-17
      7114.00  6.85234e-17
      7116.00  7.65566e-17
      7118.00  7.52941e-17
      7120.00  7.89215e-17
      7122.00  7.01974e-17
      7124.00  8.11850e-17
      7126.00  7.13882e-17
      7128.00  7.49004e-17
      7130.00  7.35675e-17
      7132.00  8.00244e-17
      7134.00  7.04446e-17
      7136.00  7.91373e-17
      7138.00  8.94902e-17
      7140.00  8.31074e-17
      7142.00  8.21844e-17
      7144.00  8.94057e-17
      7146.00  8.41077e-17
      7148.00  8.31001e-17
      7150.00  8.57123e-17
      7152.00  8.18841e-17
      7154.00  7.76803e-17
      7156.00  8.06086e-17
      7158.00  8.57914e-17
      7160.00  7.63187e-17
      7162.00  7.49583e-17
      7164.00  7.05308e-17
      7166.00  8.45136e-17
      7168.00  8.63726e-17
      7170.00  4.72726e-17
      7172.00  7.75442e-17
      7174.00  9.81019e-17
      7176.00  8.39589e-17
      7178.00  8.51775e-17
      7180.00  7.31400e-17
      7182.00  9.56568e-17
      7184.00  1.02088e-16
      7186.00  7.78254e-17
      7188.00  1.10973e-16
      7190.00  1.38490e-16
      7192.00  1.03004e-16
      7194.00  9.22262e-17
      7196.00  9.25254e-17
      7198.00  8.61599e-17
      7200.00  8.42721e-17
      7202.00  1.01559e-16
      7204.00  1.14761e-16
      7206.00  9.07274e-17
      7208.00  9.24216e-17
      7210.00  9.75905e-17
      7212.00  7.31317e-17
      7214.00  7.00050e-17
      7216.00  6.32204e-17
      7218.00  7.02730e-17
      7220.00  7.67399e-17
      7222.00  7.92914e-17
      7224.00  7.20656e-17
      7226.00  7.04029e-17
      7228.00  7.62397e-17
      7230.00  7.58205e-17
      7232.00  8.55506e-17
      7234.00  7.50125e-17
      7236.00  8.37557e-17
      7238.00  8.72127e-17
      7240.00  7.43498e-17
      7242.00  8.60238e-17
      7244.00  1.01800e-16
      7246.00  6.94428e-17
      7248.00  7.35634e-17
      7250.00  8.32634e-17
      7252.00  8.07926e-17
      7254.00  8.75313e-17
      7256.00  8.13697e-17
      7258.00  7.39781e-17
      7260.00  7.05022e-17
      7262.00  9.45197e-17
      7264.00  8.42271e-17
      7266.00  7.01655e-17
      7268.00  6.99454e-17
      7270.00  7.88199e-17
      7272.00  8.83713e-17
      7274.00  7.97736e-17
      7276.00  5.70973e-17
      7278.00  1.00181e-16
      7280.00  9.05420e-17
      7282.00  7.63678e-17
      7284.00  8.18792e-17
      7286.00  9.79774e-17
      7288.00  7.13747e-17
      7290.00  8.14385e-17
      7292.00  8.69870e-17
      7294.00  8.43065e-17
      7296.00  1.05967e-16
      7298.00  8.72415e-17
      7300.00  7.80954e-17
      7302.00  7.36218e-17
      7304.00  5.28089e-17
      7306.00  8.55941e-17
      7308.00  7.71865e-17
      7310.00  7.95199e-17
      7312.00  8.08011e-17
      7314.00  6.43519e-17
      7316.00  4.90204e-17
      7318.00  7.37129e-17
      7320.00  8.81627e-17
      7322.00  8.36207e-17
      7324.00  6.85273e-17
      7326.00  9.09257e-17
      7328.00  7.46054e-17
      7330.00  5.66243e-17
      7332.00  8.69446e-17
      7334.00  7.34920e-17
      7336.00  7.52398e-17
      7338.00  8.23379e-17
      7340.00  9.86249e-17
      7342.00  7.80075e-17
      7344.00  7.85759e-17
      7346.00  9.03370e-17
      7348.00  7.37008e-17
      7350.00  6.66674e-17
      7352.00  9.02381e-17
      7354.00  7.58932e-17
      7356.00  8.76084e-17
      7358.00  8.10503e-17
      7360.00  7.67720e-17
      7362.00  7.23959e-17
      7364.00  8.57225e-17
      7366.00  8.86711e-17
      7368.00  8.78719e-17
      7370.00  8.40392e-17
      7372.00  8.42237e-17
      7374.00  7.89237e-17
      7376.00  7.51080e-17
      7378.00  7.92761e-17
      7380.00  8.13908e-17
      7382.00  9.11222e-17
      7384.00  8.38699e-17
      7386.00  7.72059e-17
      7388.00  8.06598e-17
      7390.00  8.98015e-17
      7392.00  8.79254e-17
      7394.00  7.26587e-17
      7396.00  7.86994e-17
      7398.00  7.55415e-17
      7400.00  1.01216e-16
      7402.00  9.04265e-17
      7404.00  7.30218e-17
      7406.00  7.79092e-17
      7408.00  6.95708e-17
      7410.00  7.20360e-17
      7412.00  8.39868e-17
      7414.00  7.81767e-17
      7416.00  6.95290e-17
      7418.00  8.09586e-17
      7420.00  8.91613e-17
      7422.00  8.71817e-17
      7424.00  8.18502e-17
      7426.00  8.99517e-17
      7428.00  8.02837e-17
      7430.00  7.83941e-17
      7432.00  8.33412e-17
      7434.00  7.74191e-17
      7436.00  6.19810e-17
      7438.00  7.03013e-17
      7440.00  9.36474e-17
      7442.00  9.00703e-17
      7444.00  8.45334e-17
      7446.00  7.87011e-17
      7448.00  7.98647e-17
      7450.00  1.01453e-16
      7452.00  1.03058e-16
      7454.00  9.77660e-17
      7456.00  7.65828e-17
      7458.00  8.20453e-17
      7460.00  8.82176e-17
      7462.00  7.61013e-17
      7464.00  7.62274e-17
      7466.00  8.02988e-17
      7468.00  8.08131e-17
      7470.00  9.63718e-17
      7472.00  7.98485e-17
      7474.00  7.92566e-17
      7476.00  7.28751e-17
      7478.00  9.07780e-17
      7480.00  9.65249e-17
      7482.00  8.38610e-17
      7484.00  8.21258e-17
      7486.00  9.29613e-17
      7488.00  9.42468e-17
      7490.00  1.01806e-16
      7492.00  9.43162e-17
      7494.00  7.29102e-17
      7496.00  6.88312e-17
      7498.00  8.42004e-17
      7500.00  9.89777e-17
      7502.00  8.82163e-17
      7504.00  7.88621e-17
      7506.00  6.58300e-17
      7508.00  1.04400e-16
      7510.00  9.67334e-17
      7512.00  8.01557e-17
      7514.00  8.19248e-17
      7516.00  7.92541e-17
      7518.00  9.37639e-17
      7520.00  7.78125e-17
      7522.00  7.51040e-17
      7524.00  8.89994e-17
      7526.00  8.80547e-17
      7528.00  9.35595e-17
      7530.00  8.03067e-17
      7532.00  8.45246e-17
      7534.00  7.37097e-17
      7536.00  7.30187e-17
      7538.00  9.02369e-17
      7540.00  8.13696e-17
      7542.00  7.73886e-17
      7544.00  6.89525e-17
      7546.00  8.05322e-17
      7548.00  1.00009e-16
      7550.00  8.98155e-17
      7552.00  7.69425e-17
      7554.00  7.59510e-17
      7556.00  8.16314e-17
      7558.00  7.89242e-17
      7560.00  8.10215e-17
      7562.00  7.25200e-17
      7564.00  8.36832e-17
      7566.00  8.40613e-17
      7568.00  9.38698e-17
      7570.00  9.83301e-17
      7572.00  8.89268e-17
      7574.00  6.32025e-17
      7576.00  6.24049e-17
      7578.00  9.94998e-17
      7580.00  1.13062e-16
      7582.00  1.06737e-16
      7584.00  8.53554e-17
      7586.00  7.80696e-17
      7588.00  9.60050e-17
      7590.00  9.44652e-17
      7592.00  9.27151e-17
      7594.00  1.07364e-16
      7596.00  8.36423e-17
      7598.00  5.81627e-17
      7600.00  8.64386e-17
      7602.00  8.54869e-17
      7604.00  8.73787e-17
      7606.00  5.65182e-17
      7608.00  9.78344e-17
      7610.00  1.32397e-16
      7612.00  6.64951e-17
      7614.00  4.20315e-17
      7616.00  9.09085e-17
      7618.00  8.22309e-17
      7620.00  1.00396e-16
      7622.00  1.15843e-16
      7624.00  9.62200e-17
      7626.00  8.93457e-17
      7628.00  9.25017e-17
      7630.00  1.10157e-16
      7632.00  9.85668e-17
      7634.00  7.95797e-17
      7636.00  1.06672e-16
      7638.00  9.53877e-17
      7640.00  9.83252e-17
      7642.00  1.00445e-16
      7644.00  9.91553e-17
      7646.00  8.64130e-17
      7648.00  9.20988e-17
      7650.00  1.06131e-16
      7652.00  7.13978e-17
      7654.00  8.62086e-17
      7656.00  7.34145e-17
      7658.00  8.15395e-17
      7660.00  1.13003e-16
      7662.00  9.16153e-17
      7664.00  8.40410e-17
      7666.00  8.37061e-17
      7668.00  7.54752e-17
      7670.00  7.30390e-17
      7672.00  7.18480e-17
      7674.00  7.46606e-17
      7676.00  7.60870e-17
      7678.00  9.43469e-17
      7680.00  8.07837e-17
      7682.00  6.66518e-17
      7684.00  7.21586e-17
      7686.00  7.66896e-17
      7688.00  6.50244e-17
      7690.00  8.69784e-17
      7692.00  7.86588e-17
      7694.00  6.66010e-17
      7696.00  8.52307e-17
      7698.00  8.58411e-17
      7700.00  8.33359e-17
      7702.00  7.35003e-17
      7704.00  8.21559e-17
      7706.00  8.55416e-17
      7708.00  8.27544e-17
      7710.00  7.93972e-17
      7712.00  9.62644e-17
      7714.00  1.02060e-16
      7716.00  6.91505e-17
      7718.00  7.40325e-17
      7720.00  6.30816e-17
      7722.00  7.05816e-17
      7724.00  6.11474e-17
      7726.00  7.83886e-17
      7728.00  1.07806e-16
      7730.00  9.68731e-17
      7732.00  9.24858e-17
      7734.00  9.69299e-17
      7736.00  9.10947e-17
      7738.00  7.68435e-17
      7740.00  9.41842e-17
      7742.00  9.38124e-17
      7744.00  8.65704e-17
      7746.00  7.51661e-17
      7748.00  5.53095e-17
      7750.00  5.38193e-17
      7752.00  9.31005e-17
      7754.00  1.20926e-16
      7756.00  8.51162e-17
      7758.00  1.04591e-16
      7760.00  9.75386e-17
      7762.00  9.03609e-17
      7764.00  9.26363e-17
      7766.00  9.75502e-17
      7768.00  8.68773e-17
      7770.00  9.70513e-17
      7772.00  1.07001e-16
      7774.00  8.59851e-17
      7776.00  8.94613e-17
      7778.00  8.77416e-17
      7780.00  7.97004e-17
      7782.00  7.55249e-17
      7784.00  7.36293e-17
      7786.00  8.95309e-17
      7788.00  8.43693e-17
      7790.00  9.11359e-17
      7792.00  6.07125e-17
      7794.00  7.91180e-17
      7796.00  7.71706e-17
      7798.00  8.11752e-17
      7800.00  8.88116e-17
      7802.00  8.78735e-17
      7804.00  9.57702e-17
      7806.00  9.10814e-17
      7808.00  9.34151e-17
      7810.00  1.00506e-16
      7812.00  9.04280e-17
      7814.00  7.73295e-17
      7816.00  6.59113e-17
      7818.00  8.99126e-17
      7820.00  6.66012e-17
      7822.00  7.47324e-17
      7824.00  8.20292e-17
      7826.00  5.01286e-17
      7828.00  7.75032e-17
      7830.00  9.13791e-17
      7832.00  8.80126e-17
      7834.00  1.06592e-16
      7836.00  1.20576e-16
      7838.00  8.92602e-17
      7840.00  9.41429e-17
      7842.00  7.58732e-17
      7844.00  6.69122e-17
      7846.00  7.70044e-17
      7848.00  8.39815e-17
      7850.00  9.86636e-17
      7852.00  8.55134e-17
      7854.00  6.66539e-17
      7856.00  8.55767e-17
      7858.00  7.17553e-17
      7860.00  8.58561e-17
      7862.00  7.00195e-17
      7864.00  9.37000e-17
      7866.00  8.54112e-17
      7868.00  1.05552e-16
      7870.00  8.58824e-17
      7872.00  7.89156e-17
      7874.00  8.65204e-17
      7876.00  6.85932e-17
      7878.00  7.82773e-17
      7880.00  8.00269e-17
      7882.00  7.47549e-17
      7884.00  8.55870e-17
      7886.00  1.02133e-16
      7888.00  8.37654e-17
      7890.00  9.70413e-17
      7892.00  9.44977e-17
      7894.00  1.02216e-16
      7896.00  1.12390e-16
      7898.00  9.12801e-17
      7900.00  9.68448e-17
      7902.00  8.77117e-17
      7904.00  1.16629e-16
      7906.00  1.17645e-16
      7908.00  8.92092e-17
      7910.00  8.14769e-17
      7912.00  9.43369e-17
      7914.00  9.29705e-17
      7916.00  1.05607e-16
      7918.00  1.03837e-16
      7920.00  6.85927e-17
      7922.00  7.93384e-17
      7924.00  1.03048e-16
      7926.00  9.91972e-17
      7928.00  7.70198e-17
      7930.00  6.66770e-17
      7932.00  8.60937e-17
      7934.00  7.68600e-17
      7936.00  8.85207e-17
      7938.00  1.07809e-16
      7940.00  9.64158e-17
      7942.00  1.11568e-16
      7944.00  1.09634e-16
      7946.00  7.70136e-17
      7948.00  6.55984e-17
      7950.00  8.94748e-17
      7952.00  9.22911e-17
      7954.00  9.97411e-17
      7956.00  9.88200e-17
      7958.00  9.33969e-17
      7960.00  8.75178e-17
      7962.00  1.03571e-16
      7964.00  7.09543e-17
      7966.00  7.42624e-17
      7968.00  8.26009e-17
      7970.00  8.65547e-17
      7972.00  8.95818e-17
      7974.00  7.83172e-17
      7976.00  7.45517e-17
      7978.00  8.64284e-17
      7980.00  6.82603e-17
      7982.00  8.13078e-17
      7984.00  8.25086e-17
      7986.00  1.00253e-16
      7988.00  8.24577e-17
      7990.00  1.03439e-16
      7992.00  1.00783e-16
      7994.00  9.45484e-17
      7996.00  8.96634e-17
      7998.00  8.25087e-17
      8000.00  6.50196e-17
      8002.00  8.35271e-17
      8004.00  1.00845e-16
      8006.00  8.13991e-17
      8008.00  8.91811e-17
      8010.00  8.91288e-17
      8012.00  8.10821e-17
      8014.00  7.16850e-17
      8016.00  7.96968e-17
      8018.00  8.42477e-17
      8020.00  6.92522e-17
      8022.00  8.54632e-17
      8024.00  9.83769e-17
      8026.00  9.53055e-17
      8028.00  7.24308e-17
      8030.00  8.67695e-17
      8032.00  1.02604e-16
      8034.00  9.52432e-17
      8036.00  9.15960e-17
      8038.00  8.21045e-17
      8040.00  8.94550e-17
      8042.00  1.01363e-16
      8044.00  9.60311e-17
      8046.00  8.30256e-17
      8048.00  8.96339e-17
      8050.00  9.55849e-17
      8052.00  9.97634e-17
      8054.00  9.50697e-17
      8056.00  9.10387e-17
      8058.00  9.54744e-17
      8060.00  9.25655e-17
      8062.00  9.67099e-17
      8064.00  8.69614e-17
      8066.00  7.09466e-17
      8068.00  9.38306e-17
      8070.00  9.48204e-17
      8072.00  1.00740e-16
      8074.00  1.04639e-16
      8076.00  8.94072e-17
      8078.00  9.20408e-17
      8080.00  7.05424e-17
      8082.00  9.94151e-17
      8084.00  1.07307e-16
      8086.00  8.67904e-17
      8088.00  9.86518e-17
      8090.00  9.49261e-17
      8092.00  1.05414e-16
      8094.00  1.11292e-16
      8096.00  1.07683e-16
      8098.00  8.41400e-17
      8100.00  1.05537e-16
      8102.00  9.71634e-17
      8104.00  9.87081e-17
      8106.00  1.06336e-16
      8108.00  9.31430e-17
      8110.00  8.69590e-17
      8112.00  8.94606e-17
      8114.00  9.99324e-17
      8116.00  9.62420e-17
      8118.00  8.94963e-17
      8120.00  6.52364e-17
      8122.00  8.94652e-17
      8124.00  1.05874e-16
      8126.00  9.06683e-17
      8128.00  7.83437e-17
      8130.00  7.49566e-17
      8132.00  8.49654e-17
      8134.00  1.00575e-16
      8136.00  8.18865e-17
      8138.00  7.51887e-17
      8140.00  8.28679e-17
      8142.00  8.62574e-17
      8144.00  9.00753e-17
      8146.00  1.04967e-16
      8148.00  8.26472e-17
      8150.00  1.13709e-16
      8152.00  1.19682e-16
      8154.00  1.16905e-16
      8156.00  8.15288e-17
      8158.00  7.97427e-17
      8160.00  8.18496e-17
      8162.00  1.11325e-16
      8164.00  1.06388e-16
      8166.00  7.53597e-17
      8168.00  6.30588e-17
      8170.00  9.37183e-17
      8172.00  9.24357e-17
      8174.00  9.33454e-17
      8176.00  8.46435e-17
      8178.00  9.05678e-17
      8180.00  8.47716e-17
      8182.00  6.16105e-17
      8184.00  6.71540e-17
      8186.00  1.07116e-16
      8188.00  8.47323e-17
      8190.00  6.01700e-17
      8192.00  7.42861e-17
      8194.00  9.65703e-17
      8196.00  8.16215e-17
      8198.00  5.20852e-17
      8200.00  6.88141e-17
      8202.00  8.20024e-17
      8204.00  8.84904e-17
      8206.00  8.82761e-17
      8208.00  8.46435e-17
      8210.00  5.38817e-17
      8212.00  6.03087e-17
      8214.00  8.02921e-17
      8216.00  8.83141e-17
      8218.00  8.36136e-17
      8220.00  8.10549e-17
      8222.00  9.84286e-17
      8224.00  1.07919e-16
      8226.00  8.51763e-17
      8228.00  7.82426e-17
      8230.00  5.49506e-17
      8232.00  9.91159e-17
      8234.00  9.65180e-17
      8236.00  9.03274e-17
      8238.00  1.04016e-16
      8240.00  8.09893e-17
      8242.00  9.23274e-17
      8244.00  7.70943e-17
      8246.00  7.58700e-17
      8248.00  6.14043e-17
      8250.00  7.70419e-17
      8252.00  9.20619e-17
      8254.00  6.00648e-17
      8256.00  4.87631e-17
      8258.00  5.72598e-17
      8260.00  8.29756e-17
      8262.00  7.85942e-17
      8264.00  8.17972e-17
      8266.00  8.73354e-17
      8268.00  9.82924e-17
      8270.00  9.37297e-17
      8272.00  7.84288e-17
      8274.00  6.97033e-17
      8276.00  6.73621e-17
      8278.00  6.83170e-17
      8280.00  9.64952e-17
      8282.00  7.41536e-17
      8284.00  6.96780e-17
      8286.00  6.79550e-17
      8288.00  7.71809e-17
      8290.00  9.85609e-17
      8292.00  1.01789e-16
      8294.00  1.02433e-16
      8296.00  7.45172e-17
      8298.00  8.04056e-17
      8300.00  9.40788e-17
      8302.00  1.10088e-16
      8304.00  8.85991e-17
      8306.00  8.44089e-17
      8308.00  9.34395e-17
      8310.00  7.84870e-17
      8312.00  8.24997e-17
      8314.00  9.49636e-17
      8316.00  6.06068e-17
      8318.00  1.01788e-16
      8320.00  9.35164e-17
      8322.00  8.55347e-17
      8324.00  8.22453e-17
      8326.00  8.15378e-17
      8328.00  9.36067e-17
      8330.00  9.10863e-17
      8332.00  7.96530e-17
      8334.00  8.44068e-17
      8336.00  8.13455e-17
      8338.00  8.09501e-17
      8340.00  7.34671e-17
      8342.00  7.40315e-17
      8344.00  5.11673e-17
      8346.00  1.05518e-16
      8348.00  9.78206e-17
      8350.00  5.87129e-17
      8352.00  1.04020e-16
      8354.00  9.55205e-17
      8356.00  4.59693e-17
      8358.00  9.76505e-17
      8360.00  8.16517e-17
      8362.00  6.64529e-17
      8364.00  7.15457e-17
      8366.00  7.85201e-17
      8368.00  8.50230e-17
      8370.00  7.28031e-17
      8372.00  9.11136e-17
      8374.00  7.70532e-17
      8376.00  6.73225e-17
      8378.00  8.52261e-17
      8380.00  8.79815e-17
      8382.00  7.57037e-17
      8384.00  7.48760e-17
      8386.00  8.40172e-17
      8388.00  1.07258e-16
      8390.00  9.41696e-17
      8392.00  1.02442e-16
      8394.00  7.81461e-17
      8396.00  7.64562e-17
      8398.00  8.06327e-17
      8400.00  1.11188e-16
      8402.00  7.29155e-17
      8404.00  7.44638e-17
      8406.00  7.67694e-17
      8408.00  9.36890e-17
      8410.00  7.78356e-17
      8412.00  8.02527e-17
      8414.00  8.70092e-17
      8416.00  6.18070e-17
      8418.00  9.63134e-17
      8420.00  1.06846e-16
      8422.00  8.48082e-17
      8424.00  8.94630e-17
      8426.00  9.40103e-17
      8428.00  1.00244e-16
      8430.00  9.52595e-17
      8432.00  8.34015e-17
      8434.00  6.68103e-17
      8436.00  8.98739e-17
      8438.00  9.21399e-17
      8440.00  7.74765e-17
      8442.00  7.58191e-17
      8444.00  6.52411e-17
      8446.00  7.58308e-17
      8448.00  8.18149e-17
      8450.00  7.04769e-17
      8452.00  7.46248e-17
      8454.00  8.49715e-17
      8456.00  8.66511e-17
      8458.00  1.13112e-16
      8460.00  8.12006e-17
      8462.00  7.47318e-17
      8464.00  6.78779e-17
      8466.00  6.97615e-17
      8468.00  6.79469e-17
      8470.00  6.36803e-17
      8472.00  6.72950e-17
      8474.00  6.70182e-17
      8476.00  6.70242e-17
      8478.00  8.24604e-17
      8480.00  8.40651e-17
      8482.00  7.24500e-17
      8484.00  6.67633e-17
      8486.00  9.19999e-17
      8488.00  7.23857e-17
      8490.00  7.24104e-17
      8492.00  6.82301e-17
      8494.00  8.48679e-17
      8496.00  6.78497e-17
      8498.00  8.02282e-17
      8500.00  6.69398e-17
      8502.00  4.38633e-17
      8504.00  6.52800e-17
      8506.00  8.04056e-17
      8508.00  8.14767e-17
      8510.00  1.03633e-16
      8512.00  7.24802e-17
      8514.00  7.54390e-17
      8516.00  8.55959e-17
      8518.00  1.02336e-16
      8520.00  8.79602e-17
      8522.00  8.30464e-17
      8524.00  6.68765e-17
      8526.00  7.71081e-17
      8528.00  9.07413e-17
      8530.00  6.02318e-17
      8532.00  6.87210e-17
      8534.00  6.32216e-17
      8536.00  7.60228e-17
      8538.00  7.96776e-17
      8540.00  7.69806e-17
      8542.00  6.19441e-17
      8544.00  5.12512e-17
      8546.00  7.68361e-17
      8548.00  1.06201e-16
      8550.00  7.61052e-17
      8552.00  6.73911e-17
      8554.00  6.77257e-17
      8556.00  8.05715e-17
      8558.00  9.40998e-17
      8560.00  8.34244e-17
      8562.00  6.36817e-17
      8564.00  7.98142e-17
      8566.00  7.05561e-17
      8568.00  6.31976e-17
      8570.00  7.30641e-17
      8572.00  6.99562e-17
      8574.00  5.93771e-17
      8576.00  6.35726e-17
      8578.00  8.67159e-17
      8580.00  7.95738e-17
      8582.00  9.15866e-17
      8584.00  9.23272e-17
      8586.00  9.05106e-17
      8588.00  9.29846e-17
      8590.00  8.94858e-17
      8592.00  8.49689e-17
      8594.00  6.37696e-17
      8596.00  6.48173e-17
      8598.00  7.48390e-17
      8600.00  6.31590e-17
      8602.00  8.01918e-17
      8604.00  8.77338e-17
      8606.00  7.47021e-17
      8608.00  8.22275e-17
      8610.00  6.31621e-17
      8612.00  4.84497e-17
      8614.00  5.69045e-17
      8616.00  7.84963e-17
      8618.00  9.52941e-17
      8620.00  7.30237e-17
      8622.00  6.71594e-17
      8624.00  5.95912e-17
      8626.00  6.73688e-17
      8628.00  7.21382e-17
      8630.00  8.19216e-17
      8632.00  8.99231e-17
      8634.00  7.48490e-17
      8636.00  6.49718e-17
      8638.00  9.15423e-17
      8640.00  8.46403e-17
      8642.00  9.15194e-17
      8644.00  7.36600e-17
      8646.00  7.22047e-17
      8648.00  9.32756e-17
      8650.00  7.62679e-17
      8652.00  7.05074e-17
      8654.00  8.11784e-17
      8656.00  6.53016e-17
      8658.00  6.24295e-17
      8660.00  8.95014e-17
      8662.00  5.90243e-17
      8664.00  5.40798e-17
      8666.00  8.24933e-17
      8668.00  1.03198e-16
      8670.00  5.39399e-17
      8672.00  5.79210e-17
      8674.00  7.21021e-17
      8676.00  5.52652e-17
      8678.00  7.61664e-17
      8680.00  8.74580e-17
      8682.00  9.37969e-17
      8684.00  8.72726e-17
      8686.00  7.90268e-17
      8688.00  7.99816e-17
      8690.00  7.85771e-17
      8692.00  8.01769e-17
      8694.00  7.48824e-17
      8696.00  6.86669e-17
      8698.00  7.94011e-17
      8700.00  6.58091e-17
      8702.00  6.10897e-17
      8704.00  8.17992e-17
      8706.00  9.91788e-17
      8708.00  9.51869e-17
      8710.00  7.69444e-17
      8712.00  9.73735e-17
      8714.00  1.06859e-16
      8716.00  6.78736e-17
      8718.00  8.10718e-17
      8720.00  7.75468e-17
      8722.00  6.86851e-17
      8724.00  8.93032e-17
      8726.00  9.18635e-17
      8728.00  8.96991e-17
      8730.00  9.03512e-17
      8732.00  7.60408e-17
      8734.00  8.28971e-17
      8736.00  1.02835e-16
      8738.00  8.39747e-17
      8740.00  6.99654e-17
      8742.00  8.99652e-17
      8744.00  1.06299e-16
      8746.00  8.46044e-17
      8748.00  7.43774e-17
      8750.00  8.67114e-17
      8752.00  8.30705e-17
      8754.00  8.58507e-17
      8756.00  1.00575e-16
      8758.00  7.96987e-17
      8760.00  8.87461e-17
      8762.00  7.74657e-17
      8764.00  6.60670e-17
      8766.00  5.54602e-17
      8768.00  6.02619e-17
      8770.00  5.92005e-17
      8772.00  8.22674e-17
      8774.00  7.77880e-17
      8776.00  9.11998e-17
      8778.00  8.20693e-17
      8780.00  7.26158e-17
      8782.00  7.76765e-17
      8784.00  9.44674e-17
      8786.00  6.68945e-17
      8788.00  5.66492e-17
      8790.00  6.67169e-17
      8792.00  6.04048e-17
      8794.00  8.19062e-17
      8796.00  8.14796e-17
      8798.00  8.97432e-17
      8800.00  8.34870e-17
      8802.00  9.35490e-17
      8804.00  7.43553e-17
      8806.00  7.64581e-17
      8808.00  7.18566e-17
      8810.00  9.25161e-17
      8812.00  9.32319e-17
      8814.00  7.44207e-17
      8816.00  7.63439e-17
      8818.00  9.99688e-17
      8820.00  1.01074e-16
      8822.00  1.00052e-16
      8824.00  8.05082e-17
      8826.00  3.96692e-17
      8828.00  7.62797e-17
      8830.00  9.50414e-17
      8832.00  6.00504e-17
      8834.00  6.18167e-17
      8836.00  5.78293e-17
      8838.00  6.58799e-17
      8840.00  7.58213e-17
      8842.00  6.59026e-17
      8844.00  7.63885e-17
      8846.00  6.49759e-17
      8848.00  7.28017e-17
      8850.00  7.42919e-17
      8852.00  6.75020e-17
      8854.00  6.97068e-17
      8856.00  7.94197e-17
      8858.00  7.10968e-17
      8860.00  8.16850e-17
      8862.00  8.36823e-17
      8864.00  8.51650e-17
      8866.00  7.55184e-17
      8868.00  6.52747e-17
      8870.00  9.84999e-17
      8872.00  8.20509e-17
      8874.00  7.44490e-17
      8876.00  7.48830e-17
      8878.00  6.56639e-17
      8880.00  7.37126e-17
      8882.00  7.80590e-17
      8884.00  7.12087e-17
      8886.00  3.99750e-17
      8888.00  5.38024e-17
      8890.00  4.67073e-17
      8892.00  6.87107e-17
      8894.00  8.14121e-17
      8896.00  5.80919e-17
      8898.00  7.00987e-17
      8900.00  7.55342e-17
      8902.00  8.59463e-17
      8904.00  7.51330e-17
      8906.00  6.13833e-17
      8908.00  8.25606e-17
      8910.00  6.34749e-17
      8912.00  8.30518e-17
      8914.00  7.72953e-17
      8916.00  5.63722e-17
      8918.00  6.18773e-17
      8920.00  5.44004e-17
      8922.00  5.94440e-17
      8924.00  6.87399e-17
      8926.00  6.96540e-17
      8928.00  8.87639e-17
      8930.00  8.06907e-17
      8932.00  8.82933e-17
      8934.00  8.52064e-17
      8936.00  6.95344e-17
      8938.00  8.51190e-17
      8940.00  9.04542e-17
      8942.00  8.13642e-17
      8944.00  8.48478e-17
      8946.00  8.32954e-17
      8948.00  7.40836e-17
      8950.00  8.89225e-17
      8952.00  7.95471e-17
      8954.00  6.50209e-17
      8956.00  8.36819e-17
      8958.00  7.88511e-17
      8960.00  8.12508e-17
      8962.00  8.12895e-17
      8964.00  7.95637e-17
      8966.00  7.98104e-17
      8968.00  6.65843e-17
      8970.00  8.19052e-17
      8972.00  9.87736e-17
      8974.00  9.49619e-17
      8976.00  8.49533e-17
      8978.00  7.31041e-17
      8980.00  8.54866e-17
      8982.00  7.37622e-17
      8984.00  1.01090e-16
      8986.00  6.03594e-17
      8988.00  8.20407e-17
      8990.00  7.52737e-17
      8992.00  6.26497e-17
      8994.00  7.80947e-17
      8996.00  7.21574e-17
      8998.00  1.06134e-16
      9000.00  7.68260e-17
      9002.00  7.54878e-17
      9004.00  8.37902e-17
      9006.00  9.06054e-17
      9008.00  9.42827e-17
      9010.00  1.13923e-16
      9012.00  1.30465e-16
      9014.00  1.38191e-16
      9016.00  8.51261e-17
      9018.00  7.27093e-17
      9020.00  1.00270e-16
      9022.00  9.12942e-17
      9024.00  6.71744e-17
      9026.00  9.76088e-17
      9028.00  8.23321e-17
      9030.00  9.16786e-17
      9032.00  9.76708e-17
      9034.00  7.01847e-17
      9036.00  6.22746e-17
      9038.00  6.35170e-17
      9040.00  5.83228e-17
      9042.00  6.40068e-17
      9044.00  7.12725e-17
      9046.00  7.64887e-17
      9048.00  8.62466e-17
      9050.00  8.20912e-17
      9052.00  7.18522e-17
      9054.00  6.35779e-17
      9056.00  5.67075e-17
      9058.00  5.37946e-17
      9060.00  8.25768e-17
      9062.00  7.56796e-17
      9064.00  6.98411e-17
      9066.00  6.88759e-17
      9068.00  5.38889e-17
      9070.00  7.72294e-17
      9072.00  6.43396e-17
      9074.00  7.56193e-17
      9076.00  8.80733e-17
      9078.00  8.98637e-17
      9080.00  8.41525e-17
      9082.00  5.13992e-17
      9084.00  5.60200e-17
      9086.00  5.46149e-17
      9088.00  6.37227e-17
      9090.00  7.07632e-17
      9092.00  7.85356e-17
      9094.00  7.45733e-17
      9096.00  6.23220e-17
      9098.00  5.10735e-17
      9100.00  6.38677e-17
      9102.00  8.62148e-17
      9104.00  7.79308e-17
      9106.00  7.38209e-17
      9108.00  7.83910e-17
      9110.00  7.08197e-17
      9112.00  8.28577e-17
      9114.00  7.30734e-17
      9116.00  7.48391e-17
      9118.00  7.05828e-17
      9120.00  9.24118e-17
      9122.00  8.02946e-17
      9124.00  7.09833e-17
      9126.00  6.99435e-17
      9128.00  6.60847e-17
      9130.00  8.90379e-17
      9132.00  9.14744e-17
      9134.00  8.02175e-17
      9136.00  4.33160e-17
      9138.00  4.21448e-17
      9140.00  7.20678e-17
      9142.00  7.14309e-17
      9144.00  6.71867e-17
      9146.00  4.57962e-17
      9148.00  7.24870e-17
      9150.00  7.48643e-17
      9152.00  6.63254e-17
      9154.00  6.95568e-17
      9156.00  5.17332e-17
      9158.00  4.14870e-17
      9160.00  8.07812e-17
      9162.00  6.17770e-17
      9164.00  6.86085e-17
      9166.00  6.72467e-17
      9168.00  7.89856e-17
      9170.00  6.82146e-17
      9172.00  6.28756e-17
      9174.00  7.43817e-17
      9176.00  7.55330e-17
      9178.00  5.82455e-17
      9180.00  6.55363e-17
      9182.00  8.69157e-17
      9184.00  6.87722e-17
      9186.00  6.45950e-17
      9188.00  6.46179e-17
      9190.00  8.22221e-17
      9192.00  9.13904e-17
      9194.00  6.40622e-17
      9196.00  6.42487e-17
      9198.00  6.46952e-17
      9200.00  6.62296e-17
      9202.00  9.18888e-17
      9204.00  8.56961e-17
      9206.00  6.64507e-17
      9208.00  7.69064e-17
      9210.00  8.94710e-17
      9212.00  9.69629e-17
      9214.00  7.47736e-17
      9216.00  7.61911e-17
      9218.00  6.07787e-17
      9220.00  6.77201e-17
      9222.00  1.03787e-16
      9224.00  9.17915e-17
      9226.00  1.02581e-16
      9228.00  1.27862e-16
      9230.00  1.06423e-16
      9232.00  8.07564e-17
      9234.00  1.00035e-16
      9236.00  1.04768e-16
      9238.00  8.21341e-17
      9240.00  9.75505e-17
      9242.00  7.60108e-17
      9244.00  6.49857e-17
      9246.00  7.15798e-17
      9248.00  7.85536e-17
      9250.00  6.17897e-17
      9252.00  8.39528e-17
      9254.00  7.45913e-17
      9256.00  7.60297e-17
      9258.00  8.97849e-17
      9260.00  7.45299e-17
      9262.00  7.55890e-17
      9264.00  6.57720e-17
      9266.00  7.94006e-17
      9268.00  8.70065e-17
      9270.00  7.64194e-17
      9272.00  6.23265e-17
      9274.00  6.75216e-17
      9276.00  5.99613e-17
      9278.00  3.95375e-17
      9280.00  5.47636e-17
      9282.00  6.40559e-17
      9284.00  6.31407e-17
      9286.00  7.00775e-17
      9288.00  6.57987e-17
      9290.00  9.01526e-17
      9292.00  9.84527e-17
      9294.00  9.05697e-17
      9296.00  1.06213e-16
      9298.00  9.04990e-17
      9300.00  6.33875e-17
      9302.00  7.71521e-17
      9304.00  6.99143e-17
      9306.00  8.25902e-17
      9308.00  6.10279e-17
      9310.00  2.48919e-17
      9312.00  5.93306e-17
      9314.00  1.39596e-16
      9316.00  8.77683e-17
      9318.00  9.55994e-17
      9320.00  1.99120e-17
      9322.00  5.01825e-17
      9324.00  1.48563e-16
      9326.00  1.12370e-16
      9328.00  6.87561e-17
      9330.00  1.22460e-16
      9332.00  1.25013e-16
      9334.00  1.02912e-16
      9336.00  7.44876e-17
      9338.00  5.33600e-17
      9340.00  6.21049e-17
      9342.00  1.39343e-16
      9344.00  5.46328e-17
      9346.00  5.50781e-17
      9348.00  5.92644e-17
      9350.00  5.32631e-17
      9352.00  5.54909e-17
      9354.00  1.24947e-16
      9356.00  1.51901e-16
      9358.00  6.02421e-17
      9360.00  2.74916e-17
      9362.00  7.86051e-17
      9364.00  1.12460e-16
      9366.00  1.15035e-16
      9368.00  8.29011e-17
      9370.00  4.00345e-17
      9372.00  3.49612e-17
      9374.00  4.01092e-17
      9376.00  1.79021e-17
      9378.00  1.83886e-16
      9380.00  6.12918e-17
      9382.00  1.44461e-17
      9384.00  6.76256e-17
      9386.00  6.44942e-17
      9388.00  9.29959e-17
      9390.00  7.95596e-17
      9392.00  7.36010e-17
      9394.00  8.14885e-17
      9396.00  9.59225e-17
      9398.00  1.09813e-16
      9400.00  7.60440e-17
      9402.00  7.14169e-17
      9404.00  5.79240e-17
      9406.00  6.32508e-17
      9408.00  8.93118e-17
      9410.00  7.99072e-17
      9412.00  8.35485e-17
      9414.00  6.57934e-17
      9416.00  5.86431e-17
      9418.00  8.65614e-17
      9420.00  5.60057e-17
      9422.00  1.68299e-18
      9424.00  6.91335e-17
      9426.00  1.32105e-16
      9428.00  1.29555e-16
      9430.00  5.61848e-17
      9432.00  5.54979e-17
      9434.00  8.11378e-17
      9436.00  9.89103e-17
      9438.00  9.24547e-17
      9440.00  1.22625e-16
      9442.00  9.81292e-17
      9444.00  7.92980e-17
      9446.00  7.36143e-17
      9448.00  5.77452e-17
      9450.00  8.48830e-17
      9452.00  1.28961e-16
      9454.00  1.16953e-16
      9456.00  1.15694e-16
      9458.00  1.11483e-16
      9460.00  1.51650e-16
      9462.00  1.44449e-17
      9464.00  4.07129e-17
      9466.00  9.83858e-17
      9468.00  8.56437e-17
      9470.00  6.31594e-17
      9472.00  7.44140e-17
      9474.00  5.90901e-17
      9476.00  7.96848e-17
      9478.00  9.96218e-17
      9480.00  2.23008e-17
      9482.00  6.44177e-17
      9484.00  6.08437e-17
      9486.00  9.65912e-17
      9488.00  1.12416e-16
      9490.00  8.17293e-17
      9492.00  2.19437e-17
      9494.00  8.21813e-17
      9496.00  1.14307e-16
      9498.00  8.85865e-17
      9500.00  1.70114e-17
      9502.00  4.31127e-17
      9504.00  6.14724e-17
      9506.00  8.01150e-17
      9508.00  9.76922e-17
      9510.00  9.16696e-17
      9512.00  5.74843e-17
      9514.00  9.04530e-17
      9516.00  1.49067e-16
      9518.00  1.15815e-16
      9520.00  7.10887e-17
      9522.00  3.82188e-17
      9524.00  5.62657e-17
      9526.00  9.35991e-17
      9528.00  7.15303e-17
      9530.00  6.90463e-17
      9532.00  6.26043e-17
      9534.00  5.61587e-17
      9536.00  6.62574e-17
      9538.00  6.89301e-17
      9540.00  1.09559e-16
      9542.00  5.90580e-17
      9544.00  4.86346e-17
      9546.00  6.76603e-17
      9548.00  1.00159e-16
      9550.00  8.04747e-17
      9552.00  6.26818e-17
      9554.00  8.73501e-17
      9556.00  5.90918e-17
      9558.00  6.17999e-17
      9560.00  9.20029e-17
      9562.00  4.62727e-17
      9564.00  7.38721e-17
      9566.00  9.11822e-17
      9568.00  1.12681e-16
      9570.00  7.15957e-17
      9572.00  5.75237e-17
      9574.00  6.48767e-17
      9576.00  9.95967e-17
      9578.00  9.27018e-17
      9580.00  6.43119e-17
      9582.00  6.45796e-17
      9584.00  6.42357e-17
      9586.00  9.68880e-17
      9588.00  1.25715e-16
      9590.00  7.61327e-17
      9592.00  6.18508e-17
      9594.00  8.70671e-17
      9596.00  7.91753e-17
      9598.00  9.69104e-17
      9600.00  7.74654e-17
      9602.00  6.66744e-17
      9604.00  8.26659e-17
      9606.00  9.54735e-17
      9608.00  6.26660e-17
      9610.00  2.36178e-17
      9612.00  6.11863e-17
      9614.00  7.15947e-17
      9616.00  6.08972e-17
      9618.00  6.01518e-17
      9620.00  8.94603e-17
      9622.00  1.01842e-16
      9624.00  6.28245e-17
      9626.00  4.61347e-17
      9628.00  6.14876e-17
      9630.00  6.62754e-17
      9632.00  9.06876e-17
      9634.00  6.74776e-17
      9636.00  6.39640e-17
      9638.00  8.19712e-17
      9640.00  6.91905e-17
      9642.00  5.64987e-17
      9644.00  8.73634e-17
      9646.00  7.64345e-17
      9648.00  8.57922e-17
      9650.00  7.60119e-17
      9652.00  7.56229e-17
      9654.00  9.90373e-17
      9656.00  1.04511e-16
      9658.00  8.05688e-17
      9660.00  3.81073e-17
      9662.00  3.61157e-17
      9664.00  6.91163e-17
      9666.00  7.06806e-17
      9668.00  6.33023e-17
      9670.00  4.07447e-17
      9672.00  3.66061e-17
      9674.00  8.63041e-17
      9676.00  1.02076e-16
      9678.00  8.39479e-17
      9680.00  8.73427e-17
      9682.00  9.89686e-17
      9684.00  9.77801e-17
      9686.00  6.98818e-17
      9688.00  8.07106e-17
      9690.00  4.98830e-17
      9692.00  4.93675e-17
      9694.00  8.20405e-17
      9696.00  8.11594e-17
      9698.00  5.16263e-17
      9700.00  8.30840e-17
      9702.00  9.15591e-17
      9704.00  8.03492e-17
      9706.00  1.13488e-16
      9708.00  9.93164e-17
      9710.00  7.10409e-17
      9712.00  6.60163e-17
      9714.00  8.30228e-17
      9716.00  8.71491e-17
      9718.00  1.02455e-16
      9720.00  9.07798e-17
      9722.00  7.67466e-17
      9724.00  7.48595e-17
      9726.00  5.69921e-17
      9728.00  6.65428e-17
      9730.00  9.47553e-17
      9732.00  8.56978e-17
      9734.00  5.82509e-17
      9736.00  5.81969e-17
      9738.00  7.68635e-17
      9740.00  7.04198e-17
      9742.00  6.05294e-17
      9744.00  9.50249e-17
      9746.00  1.15676e-16
      9748.00  7.18637e-17
      9750.00  6.63093e-17
      9752.00  6.78638e-17
      9754.00  7.85519e-17
      9756.00  5.98362e-17
      9758.00  6.24111e-17
      9760.00  9.37591e-17
      9762.00  8.61589e-17
      9764.00  8.78695e-17
      9766.00  9.02949e-17
      9768.00  6.99840e-17
      9770.00  9.38095e-17
      9772.00  6.91439e-17
      9774.00  6.25622e-17
      9776.00  7.80784e-17
      9778.00  8.95035e-17
      9780.00  1.11407e-16
      9782.00  6.70826e-17
      9784.00  8.08714e-17
      9786.00  7.07636e-17
      9788.00  8.51037e-17
      9790.00  7.73249e-17
      9792.00  4.79971e-17
      9794.00  9.39768e-17
      9796.00  7.04445e-17
      9798.00  8.16246e-17
      9800.00  6.26949e-17
      9802.00  6.99886e-17
      9804.00  8.04324e-17
      9806.00  7.71407e-17
      9808.00  7.06920e-17
      9810.00  6.60627e-17
      9812.00  6.37894e-17
      9814.00  7.35383e-17
      9816.00  5.81056e-17
      9818.00  7.41149e-17
      9820.00  9.27497e-17
      9822.00  6.75098e-17
      9824.00  6.52015e-17
      9826.00  8.27829e-17
      9828.00  5.92276e-17
      9830.00  6.79236e-17
      9832.00  6.01942e-17
      9834.00  8.13153e-17
      9836.00  8.09857e-17
      9838.00  8.75255e-17
      9840.00  8.23561e-17
      9842.00  7.07506e-17
      9844.00  7.71187e-17
      9846.00  1.13782e-16
      9848.00  7.00983e-17
      9850.00  8.50068e-17
      9852.00  6.29975e-17
      9854.00  7.77560e-17
      9856.00  7.96891e-17
      9858.00  6.73519e-17
      9860.00  6.75806e-17
      9862.00  5.19187e-17
      9864.00  4.86755e-17
      9866.00  6.45225e-17
      9868.00  6.89161e-17
      9870.00  6.34196e-17
      9872.00  6.73151e-17
      9874.00  5.68257e-17
      9876.00  8.14315e-17
      9878.00  7.04055e-17
      9880.00  5.28151e-17
      9882.00  5.73977e-17
      9884.00  7.41499e-17
      9886.00  6.91036e-17
      9888.00  8.45844e-17
      9890.00  8.11142e-17
      9892.00  7.27059e-17
      9894.00  1.12480e-16
      9896.00  9.08634e-17
      9898.00  7.60100e-17
      9900.00  8.71915e-17
      9902.00  5.98972e-17
      9904.00  6.40868e-17
      9906.00  6.95053e-17
      9908.00  6.66106e-17
      9910.00  4.70460e-17
      9912.00  3.23980e-17
      9914.00  3.54131e-17
      9916.00  5.00180e-17
      9918.00  6.49421e-17
      9920.00  9.28762e-17
      9922.00  9.45823e-17
      9924.00  4.51536e-17
      9926.00  5.37713e-17
      9928.00  8.43330e-17
      9930.00  6.09252e-17
      9932.00  7.84563e-17
      9934.00  8.92875e-17
      9936.00  7.08297e-17
      9938.00  5.94807e-17
      9940.00  8.31180e-17
      9942.00  1.35993e-16
      9944.00  9.53520e-17
      9946.00  6.74794e-17
      9948.00  8.18972e-17
      9950.00  1.25885e-16
      9952.00  7.03645e-17
      9954.00  4.40653e-17
      9956.00  8.18266e-17
      9958.00  8.86906e-17
      9960.00  2.76124e-17
      9962.00  6.98884e-17
      9964.00  1.56122e-17
      9966.00  7.93887e-17
      9968.00  7.28109e-17
      9970.00  8.78308e-17
      9972.00  1.22480e-16
      9974.00  5.72665e-17
      9976.00  5.05837e-17
      9978.00  5.34137e-17
      9980.00  8.12672e-17
      9982.00  9.38209e-17
      9984.00  8.11134e-17
      9986.00  1.23617e-16
      9988.00  9.18428e-17
      9990.00  7.48462e-17
      9992.00  5.98093e-17
      9994.00  8.35217e-17
      9996.00  7.79270e-17
      9998.00  8.49884e-17
      10000.0  7.66967e-17
      10002.0  7.08806e-17
      10004.0  8.97747e-17
      10006.0  4.19238e-17
      10008.0  9.69282e-17
      10010.0  6.54560e-17
      10012.0  5.51837e-17
      10014.0  1.10601e-16
      10016.0  8.73028e-17
      10018.0  9.11412e-17
      10020.0  5.25565e-17
      10022.0  9.65057e-17
      10024.0  8.32194e-17
      10026.0  3.62613e-17
      10028.0  3.71050e-17
      10030.0  1.04903e-16
      10032.0  5.65548e-17
      10034.0  5.64508e-17
      10036.0  4.44302e-17
      10038.0  3.15383e-17
      10040.0  6.78487e-17
      10042.0  7.55418e-17
      10044.0  4.75245e-17
      10046.0  2.69812e-17
      10048.0  7.46105e-17
      10050.0  5.87762e-17
      10052.0  8.05795e-17
      10054.0  5.92249e-17
      10056.0  3.74662e-17
      10058.0  5.44615e-17
      10060.0  5.76832e-17
      10062.0  9.13502e-17
      10064.0  7.24203e-17
      10066.0  6.27619e-17
      10068.0  8.51915e-17
      10070.0  1.06528e-16
      10072.0  1.18791e-16
      10074.0  7.66526e-17
      10076.0  1.03176e-16
      10078.0  6.46845e-17
      10080.0  9.78406e-17
      10082.0  4.63938e-17
      10084.0  6.56621e-17
      10086.0  1.08622e-16
      10088.0  7.35791e-17
      10090.0  1.01496e-16
      10092.0  4.07980e-17
      10094.0  9.42439e-17
      10096.0  5.96140e-17
      10098.0  7.88462e-17
      10100.0  6.95316e-17
      10102.0  9.32753e-17
      10104.0  7.41999e-17
      10106.0  7.85586e-17
      10108.0  1.27075e-16
      10110.0  1.28207e-16
      10112.0  4.04888e-17
      10114.0  5.41128e-17
      10116.0  5.97066e-17
      10118.0  4.50168e-17
      10120.0  4.61187e-17
      10122.0  8.37265e-17
      10124.0  7.81640e-17
      10126.0  1.05706e-16
      10128.0  3.42527e-17
      10130.0  7.76336e-17
      10132.0  4.53868e-17
      10134.0  4.88846e-17
      10136.0  4.21291e-17
      10138.0  6.67559e-17
      10140.0  1.12411e-16
      10142.0  3.22652e-17
      10144.0  3.50053e-17
      10146.0  2.49342e-17
      10148.0  1.06992e-16
      10150.0  1.61216e-16
      10152.0  2.79924e-17
      10154.0  5.59526e-17
      10156.0  3.16523e-17
      10158.0  2.51400e-17
      10160.0  5.91673e-17
      10162.0  6.02631e-17
      10164.0  4.87422e-17
      10166.0  1.44343e-18
      10168.0  6.52790e-17
      10170.0  1.05383e-16
      10172.0  1.57517e-16
      10174.0  7.34627e-17
      10176.0  8.06371e-17
      10178.0  1.14560e-16
      10180.0  1.05362e-16
      10182.0  4.92695e-17
      10184.0 -3.93793e-18
      10186.0  5.39849e-18
      10188.0  1.17795e-16
      10190.0  1.18349e-16
      10192.0  5.94503e-17
      10194.0  1.27872e-17
      10196.0  3.07493e-17
      10198.0  4.58736e-17
      10200.0  1.70900e-16
      10202.0  1.08074e-16
      10204.0  1.34189e-16
      10206.0  6.61431e-17
      10208.0  1.42079e-16
      10210.0  1.22817e-16
      10212.0 -3.30906e-17
      10214.0  4.66921e-17
      10216.0  1.68939e-16
      10218.0  1.02485e-16
      10220.0  5.58547e-17
      10222.0  8.82430e-17
      10224.0  9.55461e-18
      10226.0 -3.62548e-17
      10228.0  9.71552e-17
      10230.0  1.20364e-16
      10232.0  6.75530e-17
      10234.0  9.81103e-17
      10236.0  7.28911e-17
      10238.0  3.40475e-17
      10240.0  1.27114e-16
      10242.0  9.16360e-17
      10244.0  6.64393e-17
      10246.0  1.08987e-16
      10248.0  8.09286e-17
      10250.0  1.48486e-16
      10252.0  9.36746e-17
      10254.0 -1.78474e-17
      10256.0 -3.09766e-17
      10258.0  1.41071e-16
      10260.0  9.89795e-17
      10262.0  5.37960e-17
      10264.0  2.82853e-17
      10266.0  2.81250e-17
      10268.0  1.99179e-18
      10270.0 -4.95509e-18
      10272.0  5.53137e-17
      10274.0  1.05841e-16
      10276.0  6.21408e-17
      10278.0  2.68299e-17
      10280.0  1.05466e-16
      10282.0  9.01250e-18
      10284.0 -2.11217e-17
      10286.0  9.87503e-17
      10288.0 -6.43116e-18
      10290.0  1.48321e-16
      10292.0 -7.31095e-17
      10294.0 -1.57196e-18
      10296.0  1.41475e-16
      10298.0  1.95299e-17
      10300.0  1.37009e-17
      10302.0  1.05637e-16
      10304.0  6.81689e-17
      10306.0 -5.55244e-19
      10308.0  3.45190e-17
      10310.0 -1.06281e-17
      10312.0  3.25832e-17
      10314.0  1.04520e-16
      10316.0  5.36758e-17
      10318.0 -7.56548e-18
      10320.0 -2.98713e-17
      10322.0 -2.02738e-17
      10324.0  1.24535e-17
      10326.0  1.43075e-16
      10328.0  4.11852e-17
      10330.0  1.00114e-16
      10332.0  1.03191e-16
      10334.0  2.08257e-17
      10336.0 -7.58115e-17
      10338.0  1.38769e-16
      10340.0  2.19486e-16
      10342.0  8.61377e-18
      10344.0  8.52184e-17
      10346.0  8.73979e-17
      10348.0 -8.57558e-19
      10350.0 -6.71230e-17
      10352.0 -7.75398e-17
      10354.0 -1.81731e-17
      10356.0  1.50772e-16
      10358.0  7.67836e-17
      10360.0  1.04574e-16
      10362.0  6.60405e-17
      10364.0  1.78324e-17
      10366.0  2.18580e-16
      10368.0  1.85710e-16
      10370.0  4.22167e-17
      10372.0 -1.71464e-16
      10374.0 -1.05449e-17
      10376.0  7.30785e-17
      10378.0  1.03818e-16
      10380.0  1.01866e-16
      10382.0 -1.14968e-16
      10384.0 -1.44181e-16
      10386.0 -1.38595e-17
      10388.0 -6.18063e-17
      10390.0  1.48987e-16
      10392.0  7.19284e-17
      10394.0  4.91590e-17
      10396.0  1.19426e-16
      10398.0  2.22479e-18
      10400.0 -7.52528e-17
      10402.0 -9.74620e-18
      10404.0  8.80304e-17
      10406.0  9.60311e-17
      10408.0  6.53458e-17
      10410.0  8.61344e-17
      10412.0  1.02624e-16
      10414.0 -1.14555e-17
      10416.0  1.77450e-16
      10418.0  1.06168e-16
      10420.0  9.05473e-17
      10422.0  4.57904e-17
      10424.0 -6.04874e-17
      10426.0 -3.97373e-17
      10428.0 -1.38696e-16
      10430.0  9.54231e-17
      10432.0  1.27505e-16
      10434.0  7.91363e-17
      10436.0  1.57271e-16
      10438.0  1.48338e-16
      10440.0  6.76793e-17
      10442.0  3.35480e-17
      10444.0  3.68613e-17
      10446.0  4.89070e-17
      10448.0  7.19338e-17
      10450.0  1.08364e-16
      10452.0  1.12819e-16
      10454.0  6.30817e-17
      10456.0  4.77407e-17
      10458.0  1.05670e-16
      10460.0 -2.75974e-17
      10462.0 -8.59764e-17
      10464.0  2.88590e-17
      10466.0 -1.30760e-16
      10468.0  8.44302e-17
      10470.0  2.32684e-16
      10472.0  2.27220e-17
      10474.0  3.54134e-17
      10476.0 -5.06229e-17
      10478.0 -3.06088e-17
      10480.0  9.76119e-17
      10482.0  1.33530e-17
      10484.0  6.91710e-17
      10486.0 -5.32827e-17
      10488.0 -4.45198e-17
      10490.0 -1.16968e-17
      10492.0  6.94498e-17
      10494.0  2.79700e-17
      10496.0 -1.84387e-17
      10498.0  1.99002e-17
      10500.0  1.19500e-16
      10502.0  8.97220e-17
      10504.0 -2.95406e-17
      10506.0 -2.24470e-17
      10508.0 -1.46710e-16
      10510.0 -1.39480e-16
      10512.0  8.81905e-17
      10514.0  1.25024e-16
      10516.0  9.69483e-17
      10518.0  1.54803e-16
      10520.0  1.07355e-16
      10522.0  1.19163e-16
      10524.0  2.43700e-16
      10526.0  1.23704e-16
      10528.0  1.07056e-16
      10530.0  2.13547e-16
      10532.0  1.01989e-16
      10534.0  2.29974e-17
      10536.0  7.22621e-18
      10538.0 -1.37946e-17
      10540.0  5.18941e-17
      10542.0  3.36206e-17
      10544.0  2.02783e-16
      10546.0  2.53100e-17
      10548.0 -1.07970e-16
      10550.0 -6.53424e-17
      10552.0 -9.51041e-17
      10554.0 -1.94003e-17
      10556.0  1.09048e-17
      10558.0 -8.35688e-17
      10560.0  3.64841e-17
      10562.0  1.10301e-16
      10564.0 -6.41772e-17
      10566.0 -8.11145e-18
      10568.0 -1.28694e-17
      10570.0 -2.74792e-17
      10572.0  2.91936e-16
      10574.0  1.76758e-16
      10576.0 -1.67341e-17
      10578.0 -9.97209e-17
      10580.0 -7.13824e-17
      10582.0 -5.99726e-17
      10584.0 -3.07576e-17
      10586.0  1.46993e-16
      10588.0  7.81738e-17
      10590.0 -4.82716e-17
      10592.0 -1.45978e-16
      10594.0 -2.51315e-17
      10596.0  4.10449e-17
      10598.0 -1.02179e-16
      10600.0 -9.28522e-18
      10602.0  2.03868e-17
      10604.0 -2.07085e-16
      10606.0  1.25204e-16
      10608.0  3.28111e-17
      10610.0 -3.73938e-17
      10612.0 -5.79802e-17
      10614.0 -9.94681e-17
      10616.0  1.88182e-17
      10618.0 -9.21823e-17
      10620.0 -1.55576e-16
      10622.0 -7.61811e-17
      10624.0  2.72371e-16
      10626.0 -5.95524e-17
      10628.0  1.30968e-16
      10630.0  1.26425e-16
      10632.0  8.81756e-17
      10634.0  1.33430e-16
      10636.0  1.64700e-16
      10638.0  1.30482e-16
      10640.0 -1.02817e-16
      10642.0  1.04649e-16
      10644.0  1.80472e-17
      10646.0 -8.48368e-18
      10648.0 -7.21812e-17
      10650.0  6.64295e-17
      10652.0 -1.43818e-17
      10654.0 -6.05054e-18
      10656.0  5.84514e-17
      10658.0  4.03497e-18
      10660.0  5.64741e-17
      10662.0  8.05158e-17
      10664.0 -2.85047e-18
      10666.0 -1.49830e-16
      10668.0 -7.26251e-17
      10670.0  3.42217e-17
      10672.0  9.15754e-18
      10674.0 -3.66148e-17
      10676.0 -2.20891e-17
      10678.0 -1.26665e-16
      10680.0 -6.67870e-17
      10682.0  9.36652e-17
      10684.0  1.51693e-16
      10686.0 -1.81036e-17
      10688.0 -1.63326e-16
      10690.0 -3.64953e-17
      10692.0  1.41211e-16
      10694.0  6.84915e-17
      10696.0  3.97047e-17
      10698.0  8.33033e-19
      10700.0  4.06323e-17
      10702.0  1.74122e-16
      10704.0 -6.80500e-17
      10706.0 -9.09998e-17
      10708.0 -5.38299e-17
      10710.0  5.97092e-17
      10712.0  5.03935e-17
      10714.0 -1.30146e-18
      10716.0  1.09657e-16
      10718.0 -7.65966e-17
      10720.0 -2.80005e-17
      10722.0  3.72351e-17
      10724.0  8.89031e-18
      10726.0 -6.20774e-17
      10728.0 -4.11467e-17
      10730.0 -5.54224e-17
      10732.0  5.05899e-17
      10734.0 -1.21411e-16
      10736.0 -5.55842e-17
      10738.0  3.35287e-17
      10740.0  4.82749e-17
      10742.0  1.05366e-16
      10744.0 -3.08226e-17
      10746.0 -6.92199e-18
      10748.0 -3.53428e-17
      10750.0  1.06922e-16
      10752.0  1.05697e-16
      10754.0 -1.36633e-17
      10756.0 -7.11437e-17
      10758.0 -2.66869e-17
      10760.0  6.18501e-17
      10762.0  2.05561e-17
      10764.0  4.44821e-18
      10766.0 -3.27447e-18
      10768.0 -2.77067e-17
      10770.0  3.59743e-17
      10772.0 -7.71593e-17
      10774.0 -5.84716e-17
      10776.0 -4.53448e-17
      10778.0 -9.05626e-17
      10780.0  7.15293e-17
