# SIMPLE = T / Written by IDL: Thu Dec 6 23:18:46 2012 
# BITPIX = -32 / IEEE single precision floating point 
# NAXIS = 1 / Number of axes 
# NAXIS1 = 3176 /Number of positions along axis 1 
# EXTEND = T / File may contain extensions 
# ORIGIN = 'NOAO-IRAF FITS Image Kernel July 2003' / FITS file originator 
# DATE = '2012-12-06T20:39:53' / Date FITS file was generated 
# IRAF-TLM= '2012-12-06T20:39:53' / Time of last modification 
# COMMENT FITS (Flexible Image Transport System) format defined in Astronomy and
# COMMENT Astrophysics Supplement Series v44/p363, v44/p371, v73/p359, v73/p365.
# COMMENT Contact the NASA Science Office of Standards and Technology for the 
# COMMENT FITS Definition document #100 and other FITS information. 
# OBJECT = 'PTF12lxp' / object title 
# IMGTYPE = 'object ' / observation type 
# GAIN = 2. / e-/adu 
# RON = 7.5 / electrons 
# DICHROIC= 'D55 ' / Dichroic 
# APERTURE= '1.5 ' / aperture (arcsecs) 
# TURRET = 'APERTURE' / turret position 
# LAMPS = '0000000 ' / lamps: D-FeAr-Hg-Ar-Ne-He-InCand 
# RFILTER = 'OPEN ' / filter wheel 
# OEXPTIME= 600. / originaly req. exposure time 
# EXPTIME = 600. / actual exposure time 
# UTSHUT = '2012-12-05T08:23:35.785' / UT shutter open 
# NAMPSXY = '1 1 ' / number of amplifiers in y x 
# CCDSUM = '1 1 ' / binning in x y 
# ASEC1 = '[1:1124,1:300]' / amplifier section 1(LL) 
# BSEC1 = '[1075:1124,1:300]' / bias section 1(LL) 
# CSEC1 = '[1:1074,1:300]' / ccd section 1(LL) 
# DSEC1 = '[1:1074,1:300]' / data section 1(LL) 
# TSEC1 = '[51:1074,1:300]' / trim section 1(LL) 
# ROISEC = '[1:1024,305:604]' / roi section 
# DETID = 'Site424_1' / detector ID 
# DETNUM = '1 ' / Detector Number 
# DETNAM = 'Site424 ' / detector name 
# FPA = 'DBSP_RED' / focal plan array 
# UTC = '340 08:23:35.8' / <elapsed days> <time-obs> 
# UT = '08:23:35.8' / time-obs 
# OBSLST = '05:34:18.8' / lst-obs 
# RA = '08:13:07.59' / Right Ascencion 
# DEC = '+63:22:27.1' / Declination 
# HOURANG = 'E02:40:00.4' / Hour angle, TCS format 
# HA = '-02:40:00.4' / Hour angle 
# AIRMASS = '1.273929' / Airmass 
# TELID = '200 ' / telescope ID 
# TELFOCUS= '41.66 mm' / focus position 
# CASSPA = '-123.00 ' / cass ring angle 
# PARALLAC= '238.72 ' / parallactic angle 
# DHE = 'CCD8 Palomar Camera controller' / detector controller 
# CCDTEMP = '154.00 ' / ccd temp (k) 
# GCOMMENT= ' ' / comment 
# SOFTVER = '3.4 ' / software version 
# HDR_REV = '3.9 ' / gfits version 
# GRATING = '158/7500' / lines/mm-blaze 
# ANGLE = '20.983 deg' / Grating Angle 
# DATE-OBS= '2012-12-05' 
# OBSERVAT= 'palomar ' 
# TIME = '08:23:35.8' 
# OPT_PA = 57.28054015579 
# IMCMB001= 'red0086.fits' 
# NCOMBINE= 1 
# TTIME = 600. 
# TELESCOP= 'P200 ' 
# ST = '5:34:18.13' 
# EPOCH = 2012.92771997237 
# UTMIDDLE= '8:28:35.8' 
# BANDID1 = 'spectrum - background fit, weights variance, clean yes' 
# BANDID2 = 'raw - background fit, weights none, clean no' 
# BANDID3 = 'background - background fit' 
# BANDID4 = 'sigma - background fit, weights variance, clean yes' 
# APNUM1 = '1 1 71.38 81.38' 
# CRVAL1 = 3300.00 / 
# CRPIX1 = 1 / 
# DC-FLAG = 0 
# DCLOG1 = 'REFSPEC1 = arc_redc.ms' 
# FLUX_Z = 1.43468200000 / 
# FLUX_NUM= 0 / 
# FLUX_OBJ= 'BD+28 ' / 
# OBS_PA = -123.000000000 /observed position angle 
# CDELT1 = 2.00000 / 
# CTYPE1 = 'LINEAR ' / 
# W_RANGE = '5350 9650' / 
# BSTAR_Z = 1.43468200000 / 
# BSTARNUM= 0 / 
# BSTAROBJ= 'BD+28 ' / 
# BARYVEL = 13.0589858242 / 
# SKYSHIFT= -2.75495709065 / 
# ATMSHIFT= -2.50000000000 / 
# EXTRACT = 'optimal ' / 
# REDUCER = 'iair ' / 
# RED_DATE= 'Thu Dec 6 23:18:46 2012' /EPOCH OF REDUCTION 
# END 
# END 
# RED_DATE= 'Thu Dec 6 23:17:15 2012' /EPOCH OF REDUCTION 
# END 
# 
      3300.00  8.90975e-16
      3302.00  8.08557e-16
      3304.00  8.69622e-16
      3306.00  9.37942e-16
      3308.00  8.43660e-16
      3310.00  8.78421e-16
      3312.00  8.31601e-16
      3314.00  9.63333e-16
      3316.00  1.15912e-15
      3318.00  8.22680e-16
      3320.00  7.38626e-16
      3322.00  7.99386e-16
      3324.00  8.08788e-16
      3326.00  8.76055e-16
      3328.00  6.97811e-16
      3330.00  7.54686e-16
      3332.00  7.78064e-16
      3334.00  7.98701e-16
      3336.00  9.63475e-16
      3338.00  9.87264e-16
      3340.00  8.70941e-16
      3342.00  9.13823e-16
      3344.00  8.78448e-16
      3346.00  8.67155e-16
      3348.00  6.69835e-16
      3350.00  6.78706e-16
      3352.00  7.46241e-16
      3354.00  5.54897e-16
      3356.00  6.31867e-16
      3358.00  6.75260e-16
      3360.00  7.32912e-16
      3362.00  5.61244e-16
      3364.00  8.21838e-16
      3366.00  7.33810e-16
      3368.00  7.03977e-16
      3370.00  7.28064e-16
      3372.00  7.41382e-16
      3374.00  5.86563e-16
      3376.00  6.12115e-16
      3378.00  3.21847e-16
      3380.00  6.59503e-16
      3382.00  7.99000e-16
      3384.00  6.73631e-16
      3386.00  5.53509e-16
      3388.00  6.83625e-16
      3390.00  8.96171e-16
      3392.00  8.55490e-16
      3394.00  7.98688e-16
      3396.00  5.85710e-16
      3398.00  7.37479e-16
      3400.00  8.32055e-16
      3402.00  7.79291e-16
      3404.00  6.31350e-16
      3406.00  7.50236e-16
      3408.00  6.71990e-16
      3410.00  6.83267e-16
      3412.00  6.03133e-16
      3414.00  6.68162e-16
      3416.00  5.69422e-16
      3418.00  6.41041e-16
      3420.00  6.25665e-16
      3422.00  4.91123e-16
      3424.00  5.86765e-16
      3426.00  6.54098e-16
      3428.00  4.61546e-16
      3430.00  6.83523e-16
      3432.00  6.58452e-16
      3434.00  6.43048e-16
      3436.00  7.00836e-16
      3438.00  6.75632e-16
      3440.00  8.49954e-16
      3442.00  7.51039e-16
      3444.00  9.93658e-16
      3446.00  8.61841e-16
      3448.00  9.05744e-16
      3450.00  9.17408e-16
      3452.00  8.54028e-16
      3454.00  8.68035e-16
      3456.00  8.39745e-16
      3458.00  8.12381e-16
      3460.00  7.76453e-16
      3462.00  7.73341e-16
      3464.00  6.38811e-16
      3466.00  7.38642e-16
      3468.00  6.76409e-16
      3470.00  7.52103e-16
      3472.00  7.02188e-16
      3474.00  6.83818e-16
      3476.00  6.16111e-16
      3478.00  6.43903e-16
      3480.00  7.18850e-16
      3482.00  7.25219e-16
      3484.00  6.56829e-16
      3486.00  6.17767e-16
      3488.00  6.41828e-16
      3490.00  7.18544e-16
      3492.00  6.98638e-16
      3494.00  7.59064e-16
      3496.00  7.59838e-16
      3498.00  8.85329e-16
      3500.00  9.74399e-16
      3502.00  8.60523e-16
      3504.00  9.92647e-16
      3506.00  8.63327e-16
      3508.00  9.73732e-16
      3510.00  1.09558e-15
      3512.00  1.14157e-15
      3514.00  9.51096e-16
      3516.00  8.90502e-16
      3518.00  9.28336e-16
      3520.00  9.36470e-16
      3522.00  8.49250e-16
      3524.00  8.44016e-16
      3526.00  7.90518e-16
      3528.00  7.70655e-16
      3530.00  7.84530e-16
      3532.00  7.01097e-16
      3534.00  5.61237e-16
      3536.00  5.99302e-16
      3538.00  6.44210e-16
      3540.00  6.35578e-16
      3542.00  6.09049e-16
      3544.00  6.54068e-16
      3546.00  6.63670e-16
      3548.00  6.86459e-16
      3550.00  7.47222e-16
      3552.00  7.50126e-16
      3554.00  7.35088e-16
      3556.00  7.61022e-16
      3558.00  7.37806e-16
      3560.00  9.05028e-16
      3562.00  8.52737e-16
      3564.00  9.05021e-16
      3566.00  9.14174e-16
      3568.00  9.76757e-16
      3570.00  9.99601e-16
      3572.00  1.02161e-15
      3574.00  1.15577e-15
      3576.00  1.15639e-15
      3578.00  1.18089e-15
      3580.00  1.23796e-15
      3582.00  1.28803e-15
      3584.00  1.32638e-15
      3586.00  1.37530e-15
      3588.00  1.37660e-15
      3590.00  1.31398e-15
      3592.00  1.35351e-15
      3594.00  1.30204e-15
      3596.00  1.25551e-15
      3598.00  1.34325e-15
      3600.00  1.18248e-15
      3602.00  1.13171e-15
      3604.00  1.06743e-15
      3606.00  1.17026e-15
      3608.00  1.05916e-15
      3610.00  1.12079e-15
      3612.00  1.04167e-15
      3614.00  1.02105e-15
      3616.00  1.04369e-15
      3618.00  1.08175e-15
      3620.00  1.04539e-15
      3622.00  1.11759e-15
      3624.00  1.02246e-15
      3626.00  1.00054e-15
      3628.00  1.01092e-15
      3630.00  1.01665e-15
      3632.00  9.60272e-16
      3634.00  1.00396e-15
      3636.00  1.03345e-15
      3638.00  1.16186e-15
      3640.00  1.10595e-15
      3642.00  1.14772e-15
      3644.00  1.21512e-15
      3646.00  1.23101e-15
      3648.00  1.27828e-15
      3650.00  1.26567e-15
      3652.00  1.36841e-15
      3654.00  1.31136e-15
      3656.00  1.36650e-15
      3658.00  1.34250e-15
      3660.00  1.33283e-15
      3662.00  1.39243e-15
      3664.00  1.35742e-15
      3666.00  1.34756e-15
      3668.00  1.37662e-15
      3670.00  1.41165e-15
      3672.00  1.38759e-15
      3674.00  1.37603e-15
      3676.00  1.38233e-15
      3678.00  1.29476e-15
      3680.00  1.37268e-15
      3682.00  1.30256e-15
      3684.00  1.28070e-15
      3686.00  1.24648e-15
      3688.00  1.21236e-15
      3690.00  1.18185e-15
      3692.00  1.17628e-15
      3694.00  1.09433e-15
      3696.00  1.08457e-15
      3698.00  1.04555e-15
      3700.00  1.01503e-15
      3702.00  9.75810e-16
      3704.00  9.34119e-16
      3706.00  9.63823e-16
      3708.00  8.96846e-16
      3710.00  9.00447e-16
      3712.00  8.70830e-16
      3714.00  8.85464e-16
      3716.00  8.89227e-16
      3718.00  8.95755e-16
      3720.00  8.61753e-16
      3722.00  8.49212e-16
      3724.00  8.36286e-16
      3726.00  9.28390e-16
      3728.00  8.94915e-16
      3730.00  8.52965e-16
      3732.00  8.09106e-16
      3734.00  8.10807e-16
      3736.00  8.27604e-16
      3738.00  8.11386e-16
      3740.00  8.93874e-16
      3742.00  7.74778e-16
      3744.00  8.16593e-16
      3746.00  8.39349e-16
      3748.00  7.33362e-16
      3750.00  7.34604e-16
      3752.00  8.24532e-16
      3754.00  8.29290e-16
      3756.00  7.35300e-16
      3758.00  7.04699e-16
      3760.00  6.96552e-16
      3762.00  6.97258e-16
      3764.00  6.70625e-16
      3766.00  7.02226e-16
      3768.00  6.15041e-16
      3770.00  5.95051e-16
      3772.00  5.92965e-16
      3774.00  6.36241e-16
      3776.00  5.57649e-16
      3778.00  5.75620e-16
      3780.00  5.69556e-16
      3782.00  5.72834e-16
      3784.00  4.28899e-16
      3786.00  4.98059e-16
      3788.00  4.63214e-16
      3790.00  5.14107e-16
      3792.00  5.08723e-16
      3794.00  5.49609e-16
      3796.00  4.30533e-16
      3798.00  4.73714e-16
      3800.00  4.87716e-16
      3802.00  4.09401e-16
      3804.00  4.03794e-16
      3806.00  4.23110e-16
      3808.00  4.18465e-16
      3810.00  3.71065e-16
      3812.00  4.16116e-16
      3814.00  3.75982e-16
      3816.00  4.38131e-16
      3818.00  3.28786e-16
      3820.00  3.93460e-16
      3822.00  3.48658e-16
      3824.00  3.87753e-16
      3826.00  3.62622e-16
      3828.00  3.85961e-16
      3830.00  3.13463e-16
      3832.00  3.57570e-16
      3834.00  3.37634e-16
      3836.00  3.82836e-16
      3838.00  3.70399e-16
      3840.00  3.41984e-16
      3842.00  3.53353e-16
      3844.00  3.40032e-16
      3846.00  3.23226e-16
      3848.00  3.37710e-16
      3850.00  2.99012e-16
      3852.00  3.67357e-16
      3854.00  3.67655e-16
      3856.00  3.33389e-16
      3858.00  3.03915e-16
      3860.00  3.03677e-16
      3862.00  3.45839e-16
      3864.00  3.70023e-16
      3866.00  3.79562e-16
      3868.00  4.54940e-16
      3870.00  5.76274e-16
      3872.00  6.70954e-16
      3874.00  7.60736e-16
      3876.00  6.04989e-16
      3878.00  4.95469e-16
      3880.00  4.49636e-16
      3882.00  4.76364e-16
      3884.00  5.52982e-16
      3886.00  4.71061e-16
      3888.00  5.07649e-16
      3890.00  5.33569e-16
      3892.00  5.03464e-16
      3894.00  5.28268e-16
      3896.00  5.31058e-16
      3898.00  5.63010e-16
      3900.00  5.23707e-16
      3902.00  5.17505e-16
      3904.00  6.05822e-16
      3906.00  6.08762e-16
      3908.00  5.59599e-16
      3910.00  6.55464e-16
      3912.00  6.60372e-16
      3914.00  6.40451e-16
      3916.00  5.89786e-16
      3918.00  6.14529e-16
      3920.00  5.76678e-16
      3922.00  6.02555e-16
      3924.00  6.73205e-16
      3926.00  6.75080e-16
      3928.00  6.86320e-16
      3930.00  7.03983e-16
      3932.00  6.97287e-16
      3934.00  6.57375e-16
      3936.00  7.29129e-16
      3938.00  6.61052e-16
      3940.00  7.12662e-16
      3942.00  7.68412e-16
      3944.00  7.71357e-16
      3946.00  7.40529e-16
      3948.00  7.33284e-16
      3950.00  7.90317e-16
      3952.00  8.24391e-16
      3954.00  8.64097e-16
      3956.00  8.10445e-16
      3958.00  8.97103e-16
      3960.00  8.88757e-16
      3962.00  8.78430e-16
      3964.00  9.25886e-16
      3966.00  9.87009e-16
      3968.00  9.16249e-16
      3970.00  9.31798e-16
      3972.00  9.87216e-16
      3974.00  1.05505e-15
      3976.00  9.60045e-16
      3978.00  1.02426e-15
      3980.00  1.03450e-15
      3982.00  1.10824e-15
      3984.00  1.02195e-15
      3986.00  1.05948e-15
      3988.00  1.14350e-15
      3990.00  1.17813e-15
      3992.00  1.15124e-15
      3994.00  1.23624e-15
      3996.00  1.26283e-15
      3998.00  1.30538e-15
      4000.00  1.27127e-15
      4002.00  1.29603e-15
      4004.00  1.33370e-15
      4006.00  1.35052e-15
      4008.00  1.41224e-15
      4010.00  1.38637e-15
      4012.00  1.38180e-15
      4014.00  1.37066e-15
      4016.00  1.46788e-15
      4018.00  1.36031e-15
      4020.00  1.39084e-15
      4022.00  1.44316e-15
      4024.00  1.44451e-15
      4026.00  1.53490e-15
      4028.00  1.49787e-15
      4030.00  1.56531e-15
      4032.00  1.59046e-15
      4034.00  1.62888e-15
      4036.00  1.62310e-15
      4038.00  1.66430e-15
      4040.00  1.68745e-15
      4042.00  1.66312e-15
      4044.00  1.64676e-15
      4046.00  1.56410e-15
      4048.00  1.70339e-15
      4050.00  1.69661e-15
      4052.00  1.64254e-15
      4054.00  1.66440e-15
      4056.00  1.71022e-15
      4058.00  1.65004e-15
      4060.00  1.73099e-15
      4062.00  1.79777e-15
      4064.00  1.68965e-15
      4066.00  1.67599e-15
      4068.00  1.75071e-15
      4070.00  1.76433e-15
      4072.00  1.73317e-15
      4074.00  1.79181e-15
      4076.00  1.71167e-15
      4078.00  1.73685e-15
      4080.00  1.71680e-15
      4082.00  1.73831e-15
      4084.00  1.74670e-15
      4086.00  1.61853e-15
      4088.00  1.73661e-15
      4090.00  1.74308e-15
      4092.00  1.72358e-15
      4094.00  1.73458e-15
      4096.00  1.72714e-15
      4098.00  1.65642e-15
      4100.00  1.63075e-15
      4102.00  1.63814e-15
      4104.00  1.67953e-15
      4106.00  1.59755e-15
      4108.00  1.64798e-15
      4110.00  1.56932e-15
      4112.00  1.68083e-15
      4114.00  1.62396e-15
      4116.00  1.62002e-15
      4118.00  1.54257e-15
      4120.00  1.54545e-15
      4122.00  1.54668e-15
      4124.00  1.51086e-15
      4126.00  1.43852e-15
      4128.00  1.45452e-15
      4130.00  1.52034e-15
      4132.00  1.50696e-15
      4134.00  1.50454e-15
      4136.00  1.55714e-15
      4138.00  1.48563e-15
      4140.00  1.44574e-15
      4142.00  1.45317e-15
      4144.00  1.47663e-15
      4146.00  1.49305e-15
      4148.00  1.57197e-15
      4150.00  1.57268e-15
      4152.00  1.53596e-15
      4154.00  1.51207e-15
      4156.00  1.58449e-15
      4158.00  1.56602e-15
      4160.00  1.60567e-15
      4162.00  1.52931e-15
      4164.00  1.59139e-15
      4166.00  1.57664e-15
      4168.00  1.52102e-15
      4170.00  1.59339e-15
      4172.00  1.57035e-15
      4174.00  1.61080e-15
      4176.00  1.60569e-15
      4178.00  1.56059e-15
      4180.00  1.52616e-15
      4182.00  1.58754e-15
      4184.00  1.53460e-15
      4186.00  1.49354e-15
      4188.00  1.45985e-15
      4190.00  1.48680e-15
      4192.00  1.52673e-15
      4194.00  1.47599e-15
      4196.00  1.53815e-15
      4198.00  1.45977e-15
      4200.00  1.47221e-15
      4202.00  1.49155e-15
      4204.00  1.56530e-15
      4206.00  1.61627e-15
      4208.00  1.57550e-15
      4210.00  1.44047e-15
      4212.00  1.48852e-15
      4214.00  1.60316e-15
      4216.00  1.56720e-15
      4218.00  1.53342e-15
      4220.00  1.58413e-15
      4222.00  1.58813e-15
      4224.00  1.51659e-15
      4226.00  1.59472e-15
      4228.00  1.54228e-15
      4230.00  1.50606e-15
      4232.00  1.53862e-15
      4234.00  1.56275e-15
      4236.00  1.58116e-15
      4238.00  1.57164e-15
      4240.00  1.64808e-15
      4242.00  1.69151e-15
      4244.00  1.62134e-15
      4246.00  1.58571e-15
      4248.00  1.64016e-15
      4250.00  1.62169e-15
      4252.00  1.66340e-15
      4254.00  1.67542e-15
      4256.00  1.64304e-15
      4258.00  1.60542e-15
      4260.00  1.58255e-15
      4262.00  1.69116e-15
      4264.00  1.55181e-15
      4266.00  1.54728e-15
      4268.00  1.54800e-15
      4270.00  1.54920e-15
      4272.00  1.53332e-15
      4274.00  1.54017e-15
      4276.00  1.54738e-15
      4278.00  1.63220e-15
      4280.00  1.54786e-15
      4282.00  1.54124e-15
      4284.00  1.54982e-15
      4286.00  1.53208e-15
      4288.00  1.52134e-15
      4290.00  1.51646e-15
      4292.00  1.49930e-15
      4294.00  1.49018e-15
      4296.00  1.45661e-15
      4298.00  1.45677e-15
      4300.00  1.42087e-15
      4302.00  1.40560e-15
      4304.00  1.51170e-15
      4306.00  1.38898e-15
      4308.00  1.43139e-15
      4310.00  1.49682e-15
      4312.00  1.49170e-15
      4314.00  1.43053e-15
      4316.00  1.40945e-15
      4318.00  1.42096e-15
      4320.00  1.37505e-15
      4322.00  1.37789e-15
      4324.00  1.42537e-15
      4326.00  1.40197e-15
      4328.00  1.44772e-15
      4330.00  1.40223e-15
      4332.00  1.36640e-15
      4334.00  1.33835e-15
      4336.00  1.36168e-15
      4338.00  1.33214e-15
      4340.00  1.26561e-15
      4342.00  1.26098e-15
      4344.00  1.28465e-15
      4346.00  1.28736e-15
      4348.00  1.26132e-15
      4350.00  1.25800e-15
      4352.00  1.29200e-15
      4354.00  1.22655e-15
      4356.00  1.23262e-15
      4358.00  1.23690e-15
      4360.00  1.24510e-15
      4362.00  1.20960e-15
      4364.00  1.19109e-15
      4366.00  1.16325e-15
      4368.00  1.13838e-15
      4370.00  1.19716e-15
      4372.00  1.08869e-15
      4374.00  1.12678e-15
      4376.00  1.14358e-15
      4378.00  1.12562e-15
      4380.00  1.10676e-15
      4382.00  1.11327e-15
      4384.00  1.07806e-15
      4386.00  1.08224e-15
      4388.00  1.03211e-15
      4390.00  1.08839e-15
      4392.00  1.02359e-15
      4394.00  1.07826e-15
      4396.00  1.01965e-15
      4398.00  1.08979e-15
      4400.00  1.03055e-15
      4402.00  9.33459e-16
      4404.00  9.80469e-16
      4406.00  9.99416e-16
      4408.00  9.54614e-16
      4410.00  9.61536e-16
      4412.00  8.85807e-16
      4414.00  9.32698e-16
      4416.00  9.31955e-16
      4418.00  8.66029e-16
      4420.00  9.23806e-16
      4422.00  9.28484e-16
      4424.00  9.03408e-16
      4426.00  8.66987e-16
      4428.00  8.40401e-16
      4430.00  8.63853e-16
      4432.00  8.46367e-16
      4434.00  8.80509e-16
      4436.00  8.40669e-16
      4438.00  7.84496e-16
      4440.00  8.31300e-16
      4442.00  8.28994e-16
      4444.00  8.11305e-16
      4446.00  8.61303e-16
      4448.00  7.83868e-16
      4450.00  8.47212e-16
      4452.00  8.42839e-16
      4454.00  8.77447e-16
      4456.00  8.42036e-16
      4458.00  8.47197e-16
      4460.00  8.37886e-16
      4462.00  9.07065e-16
      4464.00  8.80932e-16
      4466.00  8.97561e-16
      4468.00  8.58813e-16
      4470.00  8.50480e-16
      4472.00  8.93595e-16
      4474.00  9.12497e-16
      4476.00  8.92850e-16
      4478.00  9.33349e-16
      4480.00  9.31042e-16
      4482.00  8.95521e-16
      4484.00  9.26838e-16
      4486.00  9.33341e-16
      4488.00  8.93764e-16
      4490.00  9.18766e-16
      4492.00  9.18991e-16
      4494.00  9.02165e-16
      4496.00  9.60626e-16
      4498.00  9.06992e-16
      4500.00  9.84339e-16
      4502.00  9.36625e-16
      4504.00  9.45221e-16
      4506.00  9.65208e-16
      4508.00  9.76252e-16
      4510.00  1.03534e-15
      4512.00  1.01609e-15
      4514.00  1.04477e-15
      4516.00  1.02801e-15
      4518.00  1.04122e-15
      4520.00  1.01271e-15
      4522.00  1.07837e-15
      4524.00  9.93117e-16
      4526.00  1.02613e-15
      4528.00  1.07632e-15
      4530.00  1.02734e-15
      4532.00  1.05412e-15
      4534.00  1.04813e-15
      4536.00  1.07543e-15
      4538.00  1.09388e-15
      4540.00  1.11169e-15
      4542.00  1.05722e-15
      4544.00  1.10119e-15
      4546.00  1.03690e-15
      4548.00  1.06685e-15
      4550.00  1.05436e-15
      4552.00  1.02544e-15
      4554.00  9.96388e-16
      4556.00  1.04001e-15
      4558.00  1.00886e-15
      4560.00  1.02599e-15
      4562.00  1.03194e-15
      4564.00  1.00118e-15
      4566.00  9.81622e-16
      4568.00  9.74076e-16
      4570.00  9.87357e-16
      4572.00  9.55851e-16
      4574.00  1.03312e-15
      4576.00  1.02823e-15
      4578.00  9.77279e-16
      4580.00  8.79991e-16
      4582.00  9.11692e-16
      4584.00  9.17097e-16
      4586.00  8.88183e-16
      4588.00  9.52357e-16
      4590.00  9.37948e-16
      4592.00  8.82059e-16
      4594.00  9.28241e-16
      4596.00  8.99793e-16
      4598.00  9.10097e-16
      4600.00  9.24814e-16
      4602.00  9.13946e-16
      4604.00  9.47769e-16
      4606.00  9.59992e-16
      4608.00  9.64932e-16
      4610.00  9.76610e-16
      4612.00  9.88682e-16
      4614.00  1.00177e-15
      4616.00  1.06976e-15
      4618.00  9.95140e-16
      4620.00  1.03356e-15
      4622.00  1.01555e-15
      4624.00  1.04608e-15
      4626.00  1.00966e-15
      4628.00  1.07717e-15
      4630.00  1.15597e-15
      4632.00  1.11561e-15
      4634.00  1.11725e-15
      4636.00  1.13351e-15
      4638.00  1.17965e-15
      4640.00  1.14431e-15
      4642.00  1.09436e-15
      4644.00  1.14861e-15
      4646.00  1.16055e-15
      4648.00  1.12058e-15
      4650.00  1.17017e-15
      4652.00  1.12386e-15
      4654.00  1.19286e-15
      4656.00  1.17188e-15
      4658.00  1.15164e-15
      4660.00  1.21145e-15
      4662.00  1.17889e-15
      4664.00  1.26209e-15
      4666.00  1.13358e-15
      4668.00  1.21028e-15
      4670.00  1.16158e-15
      4672.00  1.21470e-15
      4674.00  1.22502e-15
      4676.00  1.19984e-15
      4678.00  1.21692e-15
      4680.00  1.18854e-15
      4682.00  1.21213e-15
      4684.00  1.15877e-15
      4686.00  1.14360e-15
      4688.00  1.17242e-15
      4690.00  1.24755e-15
      4692.00  1.18737e-15
      4694.00  1.19063e-15
      4696.00  1.20781e-15
      4698.00  1.18343e-15
      4700.00  1.15752e-15
      4702.00  1.14601e-15
      4704.00  1.18372e-15
      4706.00  1.12001e-15
      4708.00  1.17780e-15
      4710.00  1.18654e-15
      4712.00  1.14263e-15
      4714.00  1.17049e-15
      4716.00  1.19050e-15
      4718.00  1.20579e-15
      4720.00  1.15685e-15
      4722.00  1.16028e-15
      4724.00  1.10956e-15
      4726.00  1.13425e-15
      4728.00  1.18878e-15
      4730.00  1.14138e-15
      4732.00  1.13720e-15
      4734.00  1.17202e-15
      4736.00  1.16121e-15
      4738.00  1.21376e-15
      4740.00  1.20320e-15
      4742.00  1.16586e-15
      4744.00  1.17179e-15
      4746.00  1.18418e-15
      4748.00  1.15102e-15
      4750.00  1.11096e-15
      4752.00  1.15893e-15
      4754.00  1.16877e-15
      4756.00  1.19484e-15
      4758.00  1.10492e-15
      4760.00  1.17025e-15
      4762.00  1.10795e-15
      4764.00  1.13049e-15
      4766.00  1.09785e-15
      4768.00  1.09740e-15
      4770.00  1.11447e-15
      4772.00  1.09268e-15
      4774.00  1.07956e-15
      4776.00  1.12249e-15
      4778.00  1.08179e-15
      4780.00  1.06094e-15
      4782.00  1.06223e-15
      4784.00  1.08488e-15
      4786.00  1.05893e-15
      4788.00  1.06755e-15
      4790.00  1.03700e-15
      4792.00  1.02568e-15
      4794.00  1.03779e-15
      4796.00  1.00497e-15
      4798.00  1.00385e-15
      4800.00  1.02400e-15
      4802.00  9.51106e-16
      4804.00  9.82409e-16
      4806.00  1.00503e-15
      4808.00  9.06788e-16
      4810.00  9.89304e-16
      4812.00  9.58951e-16
      4814.00  9.62004e-16
      4816.00  9.12439e-16
      4818.00  8.94397e-16
      4820.00  9.55392e-16
      4822.00  8.69756e-16
      4824.00  8.81615e-16
      4826.00  8.80489e-16
      4828.00  8.76201e-16
      4830.00  8.58026e-16
      4832.00  8.91907e-16
      4834.00  8.61651e-16
      4836.00  8.72470e-16
      4838.00  8.88625e-16
      4840.00  8.76317e-16
      4842.00  8.96675e-16
      4844.00  8.63884e-16
      4846.00  9.04998e-16
      4848.00  8.96379e-16
      4850.00  9.26218e-16
      4852.00  8.78260e-16
      4854.00  8.61422e-16
      4856.00  8.75345e-16
      4858.00  8.75789e-16
      4860.00  8.63850e-16
      4862.00  8.79677e-16
      4864.00  8.36258e-16
      4866.00  8.48706e-16
      4868.00  8.47687e-16
      4870.00  8.31320e-16
      4872.00  8.28566e-16
      4874.00  8.83250e-16
      4876.00  9.07220e-16
      4878.00  8.44384e-16
      4880.00  8.56133e-16
      4882.00  8.43751e-16
      4884.00  8.40502e-16
      4886.00  8.44509e-16
      4888.00  7.61961e-16
      4890.00  8.21858e-16
      4892.00  8.26714e-16
      4894.00  8.56966e-16
      4896.00  7.95811e-16
      4898.00  7.90754e-16
      4900.00  8.43957e-16
      4902.00  7.62624e-16
      4904.00  8.00012e-16
      4906.00  7.77499e-16
      4908.00  7.40950e-16
      4910.00  8.36883e-16
      4912.00  7.97173e-16
      4914.00  7.55569e-16
      4916.00  7.42215e-16
      4918.00  7.62671e-16
      4920.00  7.68075e-16
      4922.00  7.32122e-16
      4924.00  7.22184e-16
      4926.00  7.30468e-16
      4928.00  7.42603e-16
      4930.00  8.01451e-16
      4932.00  7.89953e-16
      4934.00  7.15244e-16
      4936.00  7.79669e-16
      4938.00  7.78978e-16
      4940.00  7.67670e-16
      4942.00  7.22801e-16
      4944.00  7.46541e-16
      4946.00  7.74448e-16
      4948.00  7.61860e-16
      4950.00  7.57858e-16
      4952.00  7.67830e-16
      4954.00  7.44155e-16
      4956.00  6.93161e-16
      4958.00  7.36062e-16
      4960.00  7.98547e-16
      4962.00  7.43584e-16
      4964.00  7.49629e-16
      4966.00  8.05854e-16
      4968.00  7.89502e-16
      4970.00  7.28552e-16
      4972.00  7.15942e-16
      4974.00  6.58639e-16
      4976.00  7.30231e-16
      4978.00  7.18304e-16
      4980.00  7.61705e-16
      4982.00  7.16089e-16
      4984.00  6.67193e-16
      4986.00  7.13027e-16
      4988.00  6.65618e-16
      4990.00  7.10831e-16
      4992.00  6.98891e-16
      4994.00  6.27431e-16
      4996.00  6.60256e-16
      4998.00  6.72347e-16
      5000.00  6.13025e-16
      5002.00  6.02402e-16
      5004.00  6.18733e-16
      5006.00  6.17102e-16
      5008.00  6.21114e-16
      5010.00  6.27078e-16
      5012.00  6.05520e-16
      5014.00  6.20104e-16
      5016.00  5.88172e-16
      5018.00  6.69437e-16
      5020.00  6.05945e-16
      5022.00  5.95271e-16
      5024.00  6.33923e-16
      5026.00  6.36909e-16
      5028.00  5.72395e-16
      5030.00  5.50357e-16
      5032.00  5.62276e-16
      5034.00  5.26254e-16
      5036.00  5.63337e-16
      5038.00  5.47315e-16
      5040.00  5.48775e-16
      5042.00  5.66817e-16
      5044.00  5.78255e-16
      5046.00  6.08904e-16
      5048.00  6.24159e-16
      5050.00  7.26001e-16
      5052.00  7.14350e-16
      5054.00  5.57434e-16
      5056.00  6.27423e-16
      5058.00  6.39833e-16
      5060.00  6.05775e-16
      5062.00  6.55540e-16
      5064.00  5.94581e-16
      5066.00  6.06145e-16
      5068.00  6.07948e-16
      5070.00  5.65825e-16
      5072.00  6.65947e-16
      5074.00  6.31290e-16
      5076.00  6.20443e-16
      5078.00  6.06698e-16
      5080.00  6.29125e-16
      5082.00  6.24602e-16
      5084.00  6.18413e-16
      5086.00  6.00293e-16
      5088.00  6.57269e-16
      5090.00  6.04088e-16
      5092.00  6.26368e-16
      5094.00  7.05238e-16
      5096.00  6.64768e-16
      5098.00  6.33896e-16
      5100.00  5.93411e-16
      5102.00  6.06458e-16
      5104.00  5.77923e-16
      5106.00  6.30125e-16
      5108.00  6.18282e-16
      5110.00  6.19264e-16
      5112.00  6.32949e-16
      5114.00  5.90726e-16
      5116.00  6.06243e-16
      5118.00  6.21090e-16
      5120.00  6.08652e-16
      5122.00  6.33908e-16
      5124.00  5.98484e-16
      5126.00  5.99194e-16
      5128.00  6.56444e-16
      5130.00  6.30003e-16
      5132.00  6.02331e-16
      5134.00  6.62765e-16
      5136.00  6.24558e-16
      5138.00  6.30555e-16
      5140.00  5.87585e-16
      5142.00  6.35874e-16
      5144.00  6.30879e-16
      5146.00  6.07239e-16
      5148.00  6.29600e-16
      5150.00  7.09301e-16
      5152.00  7.19593e-16
      5154.00  6.61692e-16
      5156.00  6.46265e-16
      5158.00  6.23094e-16
      5160.00  5.87385e-16
      5162.00  6.18989e-16
      5164.00  6.50756e-16
      5166.00  5.97191e-16
      5168.00  6.59070e-16
      5170.00  6.22435e-16
      5172.00  6.49839e-16
      5174.00  6.62900e-16
      5176.00  5.91066e-16
      5178.00  6.12399e-16
      5180.00  5.97239e-16
      5182.00  5.87979e-16
      5184.00  6.57420e-16
      5186.00  6.36884e-16
      5188.00  6.72565e-16
      5190.00  6.11862e-16
      5192.00  6.41125e-16
      5194.00  6.50912e-16
      5196.00  6.77831e-16
      5198.00  6.64801e-16
      5200.00  8.74883e-16
      5202.00  1.01850e-15
      5204.00  8.35814e-16
      5206.00  7.39568e-16
      5208.00  6.88479e-16
      5210.00  6.71052e-16
      5212.00  6.99669e-16
      5214.00  6.38724e-16
      5216.00  6.78765e-16
      5218.00  6.68444e-16
      5220.00  7.20936e-16
      5222.00  6.97999e-16
      5224.00  7.45896e-16
      5226.00  7.52849e-16
      5228.00  7.12636e-16
      5230.00  7.05386e-16
      5232.00  7.41103e-16
      5234.00  7.56109e-16
      5236.00  7.55150e-16
      5238.00  7.65925e-16
      5240.00  7.22365e-16
      5242.00  7.15032e-16
      5244.00  7.28223e-16
      5246.00  6.87994e-16
      5248.00  7.02661e-16
      5250.00  7.50556e-16
      5252.00  7.68410e-16
      5254.00  7.38529e-16
      5256.00  7.65148e-16
      5258.00  7.83490e-16
      5260.00  7.82508e-16
      5262.00  7.38696e-16
      5264.00  7.68084e-16
      5266.00  7.69886e-16
      5268.00  7.66607e-16
      5270.00  7.45940e-16
      5272.00  7.47578e-16
      5274.00  8.09990e-16
      5276.00  7.86254e-16
      5278.00  7.97364e-16
      5280.00  7.76270e-16
      5282.00  7.66705e-16
      5284.00  7.82645e-16
      5286.00  8.45105e-16
      5288.00  8.22584e-16
      5290.00  7.43034e-16
      5292.00  8.27348e-16
      5294.00  8.26141e-16
      5296.00  8.41886e-16
      5298.00  8.53430e-16
      5300.00  8.22550e-16
      5302.00  7.73989e-16
      5304.00  7.68767e-16
      5306.00  7.43869e-16
      5308.00  7.71736e-16
      5310.00  8.03571e-16
      5312.00  8.17966e-16
      5314.00  8.44037e-16
      5316.00  8.48546e-16
      5318.00  7.81730e-16
      5320.00  8.68426e-16
      5322.00  8.34843e-16
      5324.00  7.63918e-16
      5326.00  7.98729e-16
      5328.00  7.63655e-16
      5330.00  7.46080e-16
      5332.00  7.48796e-16
      5334.00  7.72299e-16
      5336.00  8.06239e-16
      5338.00  7.52091e-16
      5340.00  7.25634e-16
      5342.00  8.05177e-16
      5344.00  7.55945e-16
      5346.00  7.61577e-16
      5348.00  7.75665e-16
      5350.00  7.93732e-16
      5352.00  7.64007e-16
      5354.00  8.11803e-16
      5356.00  7.68081e-16
      5358.00  7.88169e-16
      5360.00  7.13496e-16
      5362.00  7.60220e-16
      5364.00  8.75164e-16
      5366.00  8.20090e-16
      5368.00  7.75794e-16
      5370.00  8.00630e-16
      5372.00  7.74545e-16
      5374.00  8.00684e-16
      5376.00  7.31829e-16
      5378.00  8.65948e-16
      5380.00  8.26735e-16
      5382.00  7.72005e-16
      5384.00  7.48069e-16
      5386.00  7.30296e-16
      5388.00  8.11481e-16
      5390.00  7.84489e-16
      5392.00  7.10787e-16
      5394.00  7.80485e-16
      5396.00  6.89667e-16
      5398.00  7.12281e-16
      5400.00  7.29194e-16
      5402.00  6.87587e-16
      5404.00  6.58811e-16
      5406.00  7.04171e-16
      5408.00  6.63908e-16
      5410.00  6.13608e-16
      5412.00  6.44848e-16
      5414.00  6.68218e-16
      5416.00  5.99141e-16
      5418.00  6.04866e-16
      5420.00  5.38733e-16
      5422.00  6.21157e-16
      5424.00  6.49409e-16
      5426.00  6.32130e-16
      5428.00  6.08194e-16
      5430.00  5.58790e-16
      5432.00  5.67165e-16
      5434.00  5.60330e-16
      5436.00  5.52994e-16
      5438.00  5.47402e-16
      5440.00  6.20087e-16
      5442.00  5.74084e-16
      5444.00  5.90085e-16
      5446.00  5.71292e-16
      5448.00  6.43646e-16
      5450.00  6.02396e-16
      5452.00  5.53819e-16
      5454.00  5.68937e-16
      5456.00  6.17113e-16
      5458.00  5.72199e-16
      5460.00  5.68267e-16
      5462.00  5.93445e-16
      5464.00  4.58132e-16
      5466.00  5.15452e-16
      5468.00  5.54785e-16
      5470.00  5.74427e-16
      5472.00  6.15010e-16
      5474.00  4.44991e-16
      5476.00  4.52771e-16
      5478.00  5.27125e-16
      5480.00  5.34723e-16
      5482.00  5.07103e-16
      5484.00  5.12083e-16
      5486.00  5.55096e-16
      5488.00  5.49736e-16
      5490.00  5.11448e-16
      5492.00  5.46749e-16
      5494.00  4.98658e-16
      5496.00  5.94358e-16
      5498.00  5.44093e-16
      5500.00  6.05594e-16
      5502.00  6.05758e-16
      5504.00  6.65293e-16
      5506.00  5.96540e-16
      5508.00  6.30120e-16
      5510.00  5.96515e-16
      5512.00  5.40815e-16
      5514.00  5.90378e-16
      5516.00  5.89198e-16
      5518.00  5.60326e-16
      5520.00  5.84812e-16
      5522.00  5.82879e-16
      5524.00  6.36813e-16
      5526.00  6.24681e-16
      5528.00  6.45205e-16
      5530.00  5.84515e-16
      5532.00  6.41487e-16
      5534.00  6.13638e-16
      5536.00  6.23496e-16
      5538.00  6.37808e-16
      5540.00  6.82492e-16
      5542.00  6.06331e-16
      5544.00  6.90089e-16
      5546.00  6.29732e-16
      5548.00  7.04587e-16
      5550.00  6.27260e-16
      5552.00  6.52522e-16
      5554.00  6.57665e-16
      5556.00  6.61855e-16
      5558.00  6.63925e-16
      5560.00  6.60834e-16
      5562.00  6.53921e-16
      5564.00  6.59056e-16
      5566.00  6.80687e-16
      5568.00  6.86011e-16
      5570.00  6.79194e-16
      5572.00  6.71131e-16
      5574.00  6.63737e-16
      5576.00  6.56397e-16
      5578.00  6.54079e-16
      5580.00  6.58739e-16
      5582.00  6.54077e-16
      5584.00  6.40310e-16
      5586.00  6.31423e-16
      5588.00  6.29896e-16
      5590.00  6.29547e-16
      5592.00  6.25030e-16
      5594.00  6.18999e-16
      5596.00  6.08489e-16
      5598.00  5.91441e-16
      5600.00  5.77470e-16
      5602.00  5.59708e-16
      5604.00  5.50950e-16
      5606.00  5.63577e-16
      5608.00  5.88964e-16
      5610.00  5.93655e-16
      5612.00  5.82708e-16
      5614.00  5.79245e-16
      5616.00  5.77297e-16
      5618.00  5.74962e-16
      5620.00  5.70394e-16
      5622.00  5.66555e-16
      5624.00  5.70249e-16
      5626.00  5.84554e-16
      5628.00  5.79651e-16
      5630.00  5.57332e-16
      5632.00  5.40390e-16
      5634.00  5.25502e-16
      5636.00  5.15433e-16
      5638.00  5.15445e-16
      5640.00  5.23564e-16
      5642.00  5.31021e-16
      5644.00  5.47145e-16
      5646.00  5.51159e-16
      5648.00  5.43492e-16
      5650.00  5.34997e-16
      5652.00  5.27133e-16
      5654.00  5.20516e-16
      5656.00  5.28357e-16
      5658.00  5.58727e-16
      5660.00  5.62634e-16
      5662.00  5.45380e-16
      5664.00  5.33922e-16
      5666.00  5.30363e-16
      5668.00  5.31176e-16
      5670.00  5.37216e-16
      5672.00  5.49662e-16
      5674.00  5.58096e-16
      5676.00  5.66465e-16
      5678.00  5.72862e-16
      5680.00  5.75906e-16
      5682.00  5.79546e-16
      5684.00  5.86461e-16
      5686.00  5.95284e-16
      5688.00  6.05329e-16
      5690.00  6.22330e-16
      5692.00  6.27964e-16
      5694.00  6.23715e-16
      5696.00  6.18510e-16
      5698.00  6.13076e-16
      5700.00  6.08007e-16
      5702.00  6.09226e-16
      5704.00  6.12239e-16
      5706.00  6.26939e-16
      5708.00  6.63538e-16
      5710.00  6.82714e-16
      5712.00  6.77603e-16
      5714.00  6.67027e-16
      5716.00  6.68054e-16
      5718.00  6.73788e-16
      5720.00  6.77332e-16
      5722.00  6.78205e-16
      5724.00  6.85196e-16
      5726.00  7.01192e-16
      5728.00  7.14735e-16
      5730.00  7.18994e-16
      5732.00  7.18450e-16
      5734.00  7.21370e-16
      5736.00  7.24412e-16
      5738.00  7.28882e-16
      5740.00  7.37821e-16
      5742.00  7.41605e-16
      5744.00  7.35586e-16
      5746.00  7.27088e-16
      5748.00  7.28005e-16
      5750.00  7.36695e-16
      5752.00  7.35959e-16
      5754.00  7.27949e-16
      5756.00  7.22596e-16
      5758.00  7.17972e-16
      5760.00  7.16078e-16
      5762.00  7.20928e-16
      5764.00  7.31196e-16
      5766.00  7.32153e-16
      5768.00  7.24126e-16
      5770.00  7.22385e-16
      5772.00  7.26366e-16
      5774.00  7.28228e-16
      5776.00  7.23823e-16
      5778.00  7.16977e-16
      5780.00  7.15603e-16
      5782.00  7.20074e-16
      5784.00  7.17344e-16
      5786.00  7.07616e-16
      5788.00  7.01708e-16
      5790.00  6.99665e-16
      5792.00  7.01272e-16
      5794.00  7.09486e-16
      5796.00  7.25636e-16
      5798.00  7.30533e-16
      5800.00  7.22871e-16
      5802.00  7.26165e-16
      5804.00  7.42022e-16
      5806.00  7.57661e-16
      5808.00  7.65863e-16
      5810.00  7.70419e-16
      5812.00  7.72194e-16
      5814.00  7.69301e-16
      5816.00  7.67058e-16
      5818.00  7.63548e-16
      5820.00  7.60079e-16
      5822.00  7.55577e-16
      5824.00  7.52031e-16
      5826.00  7.54932e-16
      5828.00  7.62040e-16
      5830.00  7.73876e-16
      5832.00  7.98461e-16
      5834.00  8.11318e-16
      5836.00  8.10877e-16
      5838.00  8.04021e-16
      5840.00  7.93633e-16
      5842.00  7.76867e-16
      5844.00  7.72588e-16
      5846.00  7.76448e-16
      5848.00  7.82319e-16
      5850.00  7.96133e-16
      5852.00  8.05929e-16
      5854.00  8.04992e-16
      5856.00  7.97892e-16
      5858.00  7.91429e-16
      5860.00  7.80932e-16
      5862.00  7.74265e-16
      5864.00  7.67319e-16
      5866.00  7.65139e-16
      5868.00  7.71405e-16
      5870.00  7.79688e-16
      5872.00  7.79032e-16
      5874.00  7.70733e-16
      5876.00  7.73375e-16
      5878.00  7.90707e-16
      5880.00  7.93108e-16
      5882.00  7.78860e-16
      5884.00  7.60174e-16
      5886.00  7.42121e-16
      5888.00  7.21690e-16
      5890.00  7.21494e-16
      5892.00  7.51324e-16
      5894.00  7.53447e-16
      5896.00  7.29806e-16
      5898.00  7.12471e-16
      5900.00  7.13561e-16
      5902.00  7.22811e-16
      5904.00  7.28910e-16
      5906.00  7.39206e-16
      5908.00  7.40989e-16
      5910.00  7.34886e-16
      5912.00  7.30336e-16
      5914.00  7.28575e-16
      5916.00  7.26654e-16
      5918.00  7.21859e-16
      5920.00  7.14771e-16
      5922.00  7.10216e-16
      5924.00  7.06882e-16
      5926.00  7.03964e-16
      5928.00  7.00011e-16
      5930.00  6.98920e-16
      5932.00  7.04417e-16
      5934.00  7.14098e-16
      5936.00  7.17884e-16
      5938.00  7.20482e-16
      5940.00  7.17998e-16
      5942.00  7.08178e-16
      5944.00  7.00261e-16
      5946.00  6.97242e-16
      5948.00  6.95493e-16
      5950.00  6.90066e-16
      5952.00  6.80446e-16
      5954.00  6.78737e-16
      5956.00  6.80754e-16
      5958.00  6.87780e-16
      5960.00  7.06067e-16
      5962.00  7.21550e-16
      5964.00  7.19464e-16
      5966.00  7.05724e-16
      5968.00  6.93227e-16
      5970.00  6.69071e-16
      5972.00  6.61095e-16
      5974.00  6.67182e-16
      5976.00  6.77537e-16
      5978.00  6.92358e-16
      5980.00  7.09296e-16
      5982.00  7.07262e-16
      5984.00  6.82000e-16
      5986.00  6.77494e-16
      5988.00  6.86212e-16
      5990.00  6.92228e-16
      5992.00  6.95706e-16
      5994.00  6.95583e-16
      5996.00  6.84302e-16
      5998.00  6.59189e-16
      6000.00  6.56969e-16
      6002.00  6.76038e-16
      6004.00  6.85127e-16
      6006.00  6.83917e-16
      6008.00  6.82955e-16
      6010.00  6.90278e-16
      6012.00  7.01999e-16
      6014.00  7.02282e-16
      6016.00  6.91408e-16
      6018.00  6.86522e-16
      6020.00  6.79685e-16
      6022.00  6.80582e-16
      6024.00  6.98264e-16
      6026.00  7.21286e-16
      6028.00  7.21593e-16
      6030.00  7.04469e-16
      6032.00  6.92905e-16
      6034.00  6.70071e-16
      6036.00  6.64932e-16
      6038.00  6.87006e-16
      6040.00  7.14089e-16
      6042.00  7.23123e-16
      6044.00  7.23732e-16
      6046.00  7.20083e-16
      6048.00  7.02306e-16
      6050.00  6.97457e-16
      6052.00  7.07262e-16
      6054.00  7.15278e-16
      6056.00  7.12017e-16
      6058.00  7.03276e-16
      6060.00  6.98459e-16
      6062.00  6.91293e-16
      6064.00  6.91719e-16
      6066.00  7.00585e-16
      6068.00  7.07503e-16
      6070.00  7.09927e-16
      6072.00  7.10969e-16
      6074.00  7.13411e-16
      6076.00  7.15948e-16
      6078.00  7.19623e-16
      6080.00  7.25053e-16
      6082.00  7.29374e-16
      6084.00  7.33454e-16
      6086.00  7.35948e-16
      6088.00  7.34964e-16
      6090.00  7.31159e-16
      6092.00  7.28942e-16
      6094.00  7.25196e-16
      6096.00  7.25246e-16
      6098.00  7.27470e-16
      6100.00  7.32994e-16
      6102.00  7.45865e-16
      6104.00  7.61211e-16
      6106.00  7.60371e-16
      6108.00  7.41120e-16
      6110.00  7.38197e-16
      6112.00  7.46167e-16
      6114.00  7.50684e-16
      6116.00  7.50411e-16
      6118.00  7.47753e-16
      6120.00  7.43096e-16
      6122.00  7.35538e-16
      6124.00  7.30199e-16
      6126.00  7.19166e-16
      6128.00  7.22011e-16
      6130.00  7.46834e-16
      6132.00  7.67411e-16
      6134.00  7.64004e-16
      6136.00  7.46910e-16
      6138.00  7.39256e-16
      6140.00  7.29415e-16
      6142.00  7.29407e-16
      6144.00  7.43478e-16
      6146.00  7.51535e-16
      6148.00  7.45907e-16
      6150.00  7.34740e-16
      6152.00  7.29105e-16
      6154.00  7.23252e-16
      6156.00  7.23914e-16
      6158.00  7.34760e-16
      6160.00  7.38734e-16
      6162.00  7.32583e-16
      6164.00  7.25195e-16
      6166.00  7.25205e-16
      6168.00  7.29597e-16
      6170.00  7.29595e-16
      6172.00  7.32419e-16
      6174.00  7.24208e-16
      6176.00  7.00302e-16
      6178.00  6.79157e-16
      6180.00  6.69888e-16
      6182.00  6.67071e-16
      6184.00  6.68016e-16
      6186.00  6.76437e-16
      6188.00  6.82817e-16
      6190.00  6.91734e-16
      6192.00  6.98199e-16
      6194.00  7.02983e-16
      6196.00  7.04186e-16
      6198.00  6.95965e-16
      6200.00  6.77827e-16
      6202.00  6.65597e-16
      6204.00  6.55399e-16
      6206.00  6.43858e-16
      6208.00  6.25833e-16
      6210.00  6.13944e-16
      6212.00  6.22905e-16
      6214.00  6.47127e-16
      6216.00  6.47105e-16
      6218.00  6.24328e-16
      6220.00  6.17863e-16
      6222.00  6.26974e-16
      6224.00  6.29490e-16
      6226.00  6.13500e-16
      6228.00  5.90244e-16
      6230.00  5.82885e-16
      6232.00  5.87434e-16
      6234.00  5.85492e-16
      6236.00  5.85125e-16
      6238.00  5.79016e-16
      6240.00  5.63198e-16
      6242.00  5.45770e-16
      6244.00  5.37319e-16
      6246.00  5.34620e-16
      6248.00  5.28072e-16
      6250.00  5.20135e-16
      6252.00  5.12823e-16
      6254.00  5.06257e-16
      6256.00  4.99368e-16
      6258.00  4.92053e-16
      6260.00  4.84279e-16
      6262.00  4.72679e-16
      6264.00  4.54008e-16
      6266.00  4.43120e-16
      6268.00  4.37254e-16
      6270.00  4.32886e-16
      6272.00  4.30146e-16
      6274.00  4.28227e-16
      6276.00  4.23925e-16
      6278.00  4.20028e-16
      6280.00  4.09254e-16
      6282.00  3.89688e-16
      6284.00  3.73805e-16
      6286.00  3.60430e-16
      6288.00  3.50267e-16
      6290.00  3.46506e-16
      6292.00  3.48713e-16
      6294.00  3.44142e-16
      6296.00  3.34242e-16
      6298.00  3.27971e-16
      6300.00  3.24269e-16
      6302.00  3.21185e-16
      6304.00  3.18054e-16
      6306.00  3.15247e-16
      6308.00  3.12521e-16
      6310.00  3.10399e-16
      6312.00  3.07327e-16
      6314.00  3.03057e-16
      6316.00  2.99601e-16
      6318.00  2.97582e-16
      6320.00  2.95984e-16
      6322.00  2.93644e-16
      6324.00  2.91259e-16
      6326.00  2.87494e-16
      6328.00  2.80255e-16
      6330.00  2.77296e-16
      6332.00  2.78422e-16
      6334.00  2.81884e-16
      6336.00  2.87633e-16
      6338.00  2.95840e-16
      6340.00  2.99478e-16
      6342.00  3.01165e-16
      6344.00  3.00186e-16
      6346.00  2.94229e-16
      6348.00  2.89920e-16
      6350.00  2.88918e-16
      6352.00  2.90326e-16
      6354.00  2.96272e-16
      6356.00  3.10914e-16
      6358.00  3.13760e-16
      6360.00  3.08115e-16
      6362.00  3.02520e-16
      6364.00  2.94486e-16
      6366.00  2.88692e-16
      6368.00  2.93632e-16
      6370.00  3.07559e-16
      6372.00  3.14344e-16
      6374.00  3.18877e-16
      6376.00  3.22283e-16
      6378.00  3.21777e-16
      6380.00  3.23744e-16
      6382.00  3.33460e-16
      6384.00  3.47611e-16
      6386.00  3.55446e-16
      6388.00  3.59190e-16
      6390.00  3.64148e-16
      6392.00  3.68491e-16
      6394.00  3.73142e-16
      6396.00  3.78008e-16
      6398.00  3.83390e-16
      6400.00  3.90331e-16
      6402.00  3.98478e-16
      6404.00  4.07553e-16
      6406.00  4.19333e-16
      6408.00  4.28714e-16
      6410.00  4.35811e-16
      6412.00  4.41306e-16
      6414.00  4.44612e-16
      6416.00  4.45496e-16
      6418.00  4.51790e-16
      6420.00  4.63840e-16
      6422.00  4.72033e-16
      6424.00  4.78857e-16
      6426.00  4.83218e-16
      6428.00  4.82412e-16
      6430.00  4.79370e-16
      6432.00  4.85594e-16
      6434.00  5.00712e-16
      6436.00  5.10520e-16
      6438.00  5.21262e-16
      6440.00  5.27187e-16
      6442.00  5.25350e-16
      6444.00  5.21159e-16
      6446.00  5.21456e-16
      6448.00  5.22142e-16
      6450.00  5.31409e-16
      6452.00  5.55204e-16
      6454.00  5.66973e-16
      6456.00  5.67831e-16
      6458.00  5.63641e-16
      6460.00  5.55020e-16
      6462.00  5.41578e-16
      6464.00  5.40865e-16
      6466.00  5.51815e-16
      6468.00  5.57881e-16
      6470.00  5.61159e-16
      6472.00  5.67352e-16
      6474.00  5.79447e-16
      6476.00  5.94067e-16
      6478.00  6.05070e-16
      6480.00  6.17971e-16
      6482.00  6.19039e-16
      6484.00  6.06610e-16
      6486.00  5.97987e-16
      6488.00  5.91063e-16
      6490.00  5.88785e-16
      6492.00  5.99186e-16
      6494.00  6.21648e-16
      6496.00  6.28539e-16
      6498.00  6.27262e-16
      6500.00  6.23058e-16
      6502.00  6.08208e-16
      6504.00  5.99583e-16
      6506.00  6.09565e-16
      6508.00  6.29939e-16
      6510.00  6.39063e-16
      6512.00  6.47835e-16
      6514.00  6.45419e-16
      6516.00  6.26032e-16
      6518.00  6.14639e-16
      6520.00  6.17183e-16
      6522.00  6.26299e-16
      6524.00  6.35989e-16
      6526.00  6.50849e-16
      6528.00  6.59204e-16
      6530.00  6.65999e-16
      6532.00  6.67306e-16
      6534.00  6.60362e-16
      6536.00  6.52276e-16
      6538.00  6.48539e-16
      6540.00  6.46343e-16
      6542.00  6.50265e-16
      6544.00  6.64730e-16
      6546.00  6.70263e-16
      6548.00  6.67323e-16
      6550.00  6.66187e-16
      6552.00  6.72058e-16
      6554.00  6.80524e-16
      6556.00  6.83417e-16
      6558.00  6.84842e-16
      6560.00  6.80619e-16
      6562.00  6.67792e-16
      6564.00  6.58517e-16
      6566.00  6.54503e-16
      6568.00  6.52498e-16
      6570.00  6.50280e-16
      6572.00  6.49199e-16
      6574.00  6.46320e-16
      6576.00  6.40878e-16
      6578.00  6.38209e-16
      6580.00  6.38066e-16
      6582.00  6.39144e-16
      6584.00  6.41988e-16
      6586.00  6.46215e-16
      6588.00  6.43179e-16
      6590.00  6.30313e-16
      6592.00  6.26240e-16
      6594.00  6.21817e-16
      6596.00  6.28508e-16
      6598.00  6.60818e-16
      6600.00  6.98023e-16
      6602.00  6.89736e-16
      6604.00  6.38886e-16
      6606.00  6.20012e-16
      6608.00  6.12776e-16
      6610.00  6.09540e-16
      6612.00  6.12638e-16
      6614.00  6.17983e-16
      6616.00  6.19956e-16
      6618.00  6.20781e-16
      6620.00  6.23535e-16
      6622.00  6.31464e-16
      6624.00  6.30912e-16
      6626.00  6.20769e-16
      6628.00  6.10543e-16
      6630.00  6.04234e-16
      6632.00  5.99657e-16
      6634.00  5.98402e-16
      6636.00  6.05932e-16
      6638.00  6.01230e-16
      6640.00  5.83557e-16
      6642.00  5.72469e-16
      6644.00  5.73100e-16
      6646.00  5.77992e-16
      6648.00  5.79197e-16
      6650.00  5.80606e-16
      6652.00  5.78351e-16
      6654.00  5.69571e-16
      6656.00  5.66758e-16
      6658.00  5.72603e-16
      6660.00  5.77733e-16
      6662.00  5.73933e-16
      6664.00  5.64747e-16
      6666.00  5.62079e-16
      6668.00  5.63118e-16
      6670.00  5.63814e-16
      6672.00  5.65394e-16
      6674.00  5.67139e-16
      6676.00  5.69141e-16
      6678.00  5.71082e-16
      6680.00  5.71332e-16
      6682.00  5.71895e-16
      6684.00  5.67197e-16
      6686.00  5.54332e-16
      6688.00  5.46660e-16
      6690.00  5.47334e-16
      6692.00  5.49674e-16
      6694.00  5.46594e-16
      6696.00  5.40618e-16
      6698.00  5.35536e-16
      6700.00  5.28015e-16
      6702.00  5.24687e-16
      6704.00  5.27057e-16
      6706.00  5.28863e-16
      6708.00  5.25338e-16
      6710.00  5.19243e-16
      6712.00  5.18975e-16
      6714.00  5.23632e-16
      6716.00  5.26353e-16
      6718.00  5.28980e-16
      6720.00  5.31623e-16
      6722.00  5.35221e-16
      6724.00  5.38233e-16
      6726.00  5.37014e-16
      6728.00  5.32873e-16
      6730.00  5.26327e-16
      6732.00  5.10742e-16
      6734.00  5.05544e-16
      6736.00  5.13781e-16
      6738.00  5.25768e-16
      6740.00  5.35226e-16
      6742.00  5.46310e-16
      6744.00  5.41976e-16
      6746.00  5.17511e-16
      6748.00  5.06397e-16
      6750.00  5.03985e-16
      6752.00  5.04549e-16
      6754.00  5.08005e-16
      6756.00  5.13401e-16
      6758.00  5.10197e-16
      6760.00  4.95890e-16
      6762.00  4.93268e-16
      6764.00  5.00397e-16
      6766.00  5.03549e-16
      6768.00  4.99862e-16
      6770.00  4.93792e-16
      6772.00  4.89207e-16
      6774.00  4.83730e-16
      6776.00  4.82184e-16
      6778.00  4.84081e-16
      6780.00  4.86209e-16
      6782.00  4.89446e-16
      6784.00  4.92675e-16
      6786.00  4.94897e-16
      6788.00  4.96608e-16
      6790.00  4.97612e-16
      6792.00  4.96422e-16
      6794.00  4.98175e-16
      6796.00  5.05332e-16
      6798.00  5.07944e-16
      6800.00  4.98683e-16
      6802.00  4.86013e-16
      6804.00  4.89341e-16
      6806.00  4.96687e-16
      6808.00  5.27469e-16
      6810.00  5.95561e-16
      6812.00  6.42918e-16
      6814.00  6.71251e-16
      6816.00  6.80377e-16
      6818.00  6.57404e-16
      6820.00  6.01759e-16
      6822.00  5.66394e-16
      6824.00  5.30247e-16
      6826.00  5.05421e-16
      6828.00  4.91563e-16
      6830.00  4.84375e-16
      6832.00  4.84176e-16
      6834.00  4.90077e-16
      6836.00  4.86655e-16
      6838.00  4.73612e-16
      6840.00  4.70403e-16
      6842.00  4.74831e-16
      6844.00  4.77686e-16
      6846.00  4.77369e-16
      6848.00  4.75288e-16
      6850.00  4.70598e-16
      6852.00  4.61342e-16
      6854.00  4.59054e-16
      6856.00  4.64758e-16
      6858.00  4.64506e-16
      6860.00  4.57248e-16
      6862.00  4.47987e-16
      6864.00  4.39368e-16
      6866.00  4.29643e-16
      6868.00  4.27315e-16
      6870.00  4.29384e-16
      6872.00  4.36346e-16
      6874.00  4.53527e-16
      6876.00  4.66866e-16
      6878.00  4.70383e-16
      6880.00  4.68032e-16
      6882.00  4.61632e-16
      6884.00  4.44687e-16
      6886.00  4.38932e-16
      6888.00  4.40644e-16
      6890.00  4.41886e-16
      6892.00  4.42127e-16
      6894.00  4.42108e-16
      6896.00  4.40858e-16
      6898.00  4.37782e-16
      6900.00  4.39406e-16
      6902.00  4.48999e-16
      6904.00  4.49930e-16
      6906.00  4.41139e-16
      6908.00  4.30574e-16
      6910.00  4.21494e-16
      6912.00  4.12241e-16
      6914.00  4.14461e-16
      6916.00  4.31396e-16
      6918.00  4.38900e-16
      6920.00  4.44034e-16
      6922.00  4.44463e-16
      6924.00  4.36013e-16
      6926.00  4.24496e-16
      6928.00  4.25088e-16
      6930.00  4.34973e-16
      6932.00  4.41203e-16
      6934.00  4.50455e-16
      6936.00  4.54685e-16
      6938.00  4.53540e-16
      6940.00  4.48504e-16
      6942.00  4.39303e-16
      6944.00  4.24863e-16
      6946.00  4.16850e-16
      6948.00  4.12260e-16
      6950.00  4.08473e-16
      6952.00  4.05592e-16
      6954.00  4.04570e-16
      6956.00  4.07295e-16
      6958.00  4.12131e-16
      6960.00  4.10060e-16
      6962.00  4.00586e-16
      6964.00  3.96346e-16
      6966.00  3.89386e-16
      6968.00  3.91602e-16
      6970.00  4.10890e-16
      6972.00  4.34672e-16
      6974.00  4.41352e-16
      6976.00  4.37458e-16
      6978.00  4.34152e-16
      6980.00  4.23476e-16
      6982.00  4.19014e-16
      6984.00  4.23926e-16
      6986.00  4.27968e-16
      6988.00  4.21959e-16
      6990.00  4.09696e-16
      6992.00  4.02783e-16
      6994.00  3.98107e-16
      6996.00  3.93045e-16
      6998.00  3.86646e-16
      7000.00  3.82961e-16
      7002.00  3.84684e-16
      7004.00  3.89235e-16
      7006.00  3.90400e-16
      7008.00  3.91470e-16
      7010.00  3.88615e-16
      7012.00  3.79875e-16
      7014.00  3.74245e-16
      7016.00  3.72295e-16
      7018.00  3.72923e-16
      7020.00  3.76936e-16
      7022.00  3.85462e-16
      7024.00  3.88025e-16
      7026.00  3.86171e-16
      7028.00  3.85598e-16
      7030.00  3.86340e-16
      7032.00  3.86245e-16
      7034.00  3.83721e-16
      7036.00  3.79638e-16
      7038.00  3.77122e-16
      7040.00  3.74552e-16
      7042.00  3.73711e-16
      7044.00  3.75728e-16
      7046.00  3.76236e-16
      7048.00  3.72314e-16
      7050.00  3.67806e-16
      7052.00  3.71039e-16
      7054.00  3.83084e-16
      7056.00  3.84362e-16
      7058.00  3.79023e-16
      7060.00  3.72655e-16
      7062.00  3.61732e-16
      7064.00  3.53139e-16
      7066.00  3.56736e-16
      7068.00  3.69894e-16
      7070.00  3.72411e-16
      7072.00  3.67031e-16
      7074.00  3.66361e-16
      7076.00  3.70754e-16
      7078.00  3.73044e-16
      7080.00  3.67264e-16
      7082.00  3.58240e-16
      7084.00  3.62730e-16
      7086.00  3.84504e-16
      7088.00  3.89200e-16
      7090.00  3.83438e-16
      7092.00  3.77180e-16
      7094.00  3.71737e-16
      7096.00  3.65616e-16
      7098.00  3.58578e-16
      7100.00  3.49613e-16
      7102.00  3.45036e-16
      7104.00  3.41926e-16
      7106.00  3.43130e-16
      7108.00  3.50921e-16
      7110.00  3.59313e-16
      7112.00  3.63672e-16
      7114.00  3.66238e-16
      7116.00  3.66945e-16
      7118.00  3.64423e-16
      7120.00  3.63254e-16
      7122.00  3.63191e-16
      7124.00  3.62000e-16
      7126.00  3.58895e-16
      7128.00  3.54476e-16
      7130.00  3.48911e-16
      7132.00  3.38862e-16
      7134.00  3.37524e-16
      7136.00  3.43359e-16
      7138.00  3.49223e-16
      7140.00  3.56668e-16
      7142.00  3.62767e-16
      7144.00  3.61810e-16
      7146.00  3.55174e-16
      7148.00  3.51221e-16
      7150.00  3.44945e-16
      7152.00  3.43587e-16
      7154.00  3.46541e-16
      7156.00  3.52405e-16
      7158.00  3.63086e-16
      7160.00  3.77020e-16
      7162.00  3.77120e-16
      7164.00  3.62630e-16
      7166.00  3.56286e-16
      7168.00  3.50972e-16
      7170.00  3.48997e-16
      7172.00  3.53135e-16
      7174.00  3.59187e-16
      7176.00  3.57835e-16
      7178.00  3.49464e-16
      7180.00  3.49721e-16
      7182.00  3.56662e-16
      7184.00  3.61575e-16
      7186.00  3.65862e-16
      7188.00  3.67859e-16
      7190.00  3.64333e-16
      7192.00  3.56197e-16
      7194.00  3.51051e-16
      7196.00  3.45194e-16
      7198.00  3.42410e-16
      7200.00  3.41310e-16
      7202.00  3.43439e-16
      7204.00  3.52368e-16
      7206.00  3.64376e-16
      7208.00  3.63564e-16
      7210.00  3.48963e-16
      7212.00  3.45027e-16
      7214.00  3.45985e-16
      7216.00  3.47580e-16
      7218.00  3.51092e-16
      7220.00  3.53851e-16
      7222.00  3.49219e-16
      7224.00  3.36696e-16
      7226.00  3.36030e-16
      7228.00  3.49100e-16
      7230.00  3.50732e-16
      7232.00  3.37086e-16
      7234.00  3.24654e-16
      7236.00  3.26448e-16
      7238.00  3.36294e-16
      7240.00  3.37377e-16
      7242.00  3.31890e-16
      7244.00  3.31650e-16
      7246.00  3.35252e-16
      7248.00  3.38606e-16
      7250.00  3.40581e-16
      7252.00  3.41987e-16
      7254.00  3.42661e-16
      7256.00  3.41244e-16
      7258.00  3.43701e-16
      7260.00  3.50569e-16
      7262.00  3.54935e-16
      7264.00  3.58727e-16
      7266.00  3.58391e-16
      7268.00  3.46498e-16
      7270.00  3.23336e-16
      7272.00  3.14758e-16
      7274.00  3.11383e-16
      7276.00  3.16229e-16
      7278.00  3.37202e-16
      7280.00  3.53427e-16
      7282.00  3.49391e-16
      7284.00  3.34905e-16
      7286.00  3.36781e-16
      7288.00  3.54168e-16
      7290.00  3.57784e-16
      7292.00  3.53962e-16
      7294.00  3.48321e-16
      7296.00  3.39441e-16
      7298.00  3.30546e-16
      7300.00  3.31440e-16
      7302.00  3.42601e-16
      7304.00  3.41882e-16
      7306.00  3.32517e-16
      7308.00  3.25614e-16
      7310.00  3.17801e-16
      7312.00  3.14421e-16
      7314.00  3.23995e-16
      7316.00  3.44076e-16
      7318.00  3.48929e-16
      7320.00  3.42939e-16
      7322.00  3.39907e-16
      7324.00  3.36580e-16
      7326.00  3.33561e-16
      7328.00  3.31840e-16
      7330.00  3.30439e-16
      7332.00  3.26181e-16
      7334.00  3.16964e-16
      7336.00  3.15059e-16
      7338.00  3.18740e-16
      7340.00  3.22428e-16
      7342.00  3.26694e-16
      7344.00  3.30269e-16
      7346.00  3.29488e-16
      7348.00  3.24633e-16
      7350.00  3.23957e-16
      7352.00  3.24102e-16
      7354.00  3.27303e-16
      7356.00  3.34352e-16
      7358.00  3.42615e-16
      7360.00  3.51782e-16
      7362.00  3.61994e-16
      7364.00  3.62556e-16
      7366.00  3.53011e-16
      7368.00  3.47193e-16
      7370.00  3.41857e-16
      7372.00  3.36107e-16
      7374.00  3.28518e-16
      7376.00  3.21146e-16
      7378.00  3.19578e-16
      7380.00  3.23940e-16
      7382.00  3.24296e-16
      7384.00  3.23867e-16
      7386.00  3.22117e-16
      7388.00  3.18225e-16
      7390.00  3.13979e-16
      7392.00  3.11027e-16
      7394.00  3.08246e-16
      7396.00  3.09595e-16
      7398.00  3.14960e-16
      7400.00  3.20553e-16
      7402.00  3.29114e-16
      7404.00  3.35550e-16
      7406.00  3.37107e-16
      7408.00  3.35382e-16
      7410.00  3.31006e-16
      7412.00  3.17834e-16
      7414.00  3.16079e-16
      7416.00  3.23828e-16
      7418.00  3.29794e-16
      7420.00  3.32791e-16
      7422.00  3.33650e-16
      7424.00  3.29497e-16
      7426.00  3.17819e-16
      7428.00  3.18442e-16
      7430.00  3.32987e-16
      7432.00  3.37549e-16
      7434.00  3.29681e-16
      7436.00  3.20527e-16
      7438.00  3.17926e-16
      7440.00  3.18156e-16
      7442.00  3.21329e-16
      7444.00  3.32361e-16
      7446.00  3.35047e-16
      7448.00  3.29076e-16
      7450.00  3.25023e-16
      7452.00  3.28061e-16
      7454.00  3.33739e-16
      7456.00  3.34277e-16
      7458.00  3.33243e-16
      7460.00  3.27975e-16
      7462.00  3.12833e-16
      7464.00  3.06480e-16
      7466.00  3.13975e-16
      7468.00  3.25204e-16
      7470.00  3.29233e-16
      7472.00  3.30789e-16
      7474.00  3.29010e-16
      7476.00  3.21413e-16
      7478.00  3.16645e-16
      7480.00  3.14004e-16
      7482.00  3.11989e-16
      7484.00  3.09760e-16
      7486.00  3.07782e-16
      7488.00  3.07612e-16
      7490.00  3.09293e-16
      7492.00  3.10857e-16
      7494.00  3.12848e-16
      7496.00  3.15222e-16
      7498.00  3.18274e-16
      7500.00  3.21517e-16
      7502.00  3.23913e-16
      7504.00  3.27261e-16
      7506.00  3.25104e-16
      7508.00  3.15578e-16
      7510.00  3.10190e-16
      7512.00  3.09287e-16
      7514.00  3.10584e-16
      7516.00  3.13048e-16
      7518.00  3.17291e-16
      7520.00  3.21595e-16
      7522.00  3.29924e-16
      7524.00  3.31367e-16
      7526.00  3.27376e-16
      7528.00  3.19768e-16
      7530.00  3.05776e-16
      7532.00  2.88691e-16
      7534.00  2.88273e-16
      7536.00  3.06410e-16
      7538.00  3.11303e-16
      7540.00  3.12352e-16
      7542.00  3.09557e-16
      7544.00  3.00491e-16
      7546.00  2.89620e-16
      7548.00  2.85406e-16
      7550.00  2.85924e-16
      7552.00  2.82473e-16
      7554.00  2.75148e-16
      7556.00  2.72095e-16
      7558.00  2.71605e-16
      7560.00  2.75444e-16
      7562.00  2.87652e-16
      7564.00  3.06778e-16
      7566.00  3.14590e-16
      7568.00  3.19253e-16
      7570.00  3.14333e-16
      7572.00  2.94216e-16
      7574.00  2.77886e-16
      7576.00  2.71093e-16
      7578.00  2.70088e-16
      7580.00  2.76907e-16
      7582.00  2.99372e-16
      7584.00  3.02641e-16
      7586.00  2.89871e-16
      7588.00  2.82637e-16
      7590.00  2.82323e-16
      7592.00  2.85321e-16
      7594.00  2.91599e-16
      7596.00  3.03298e-16
      7598.00  3.03338e-16
      7600.00  2.92449e-16
      7602.00  2.85787e-16
      7604.00  2.79921e-16
      7606.00  2.77115e-16
      7608.00  2.80483e-16
      7610.00  2.88052e-16
      7612.00  2.91073e-16
      7614.00  2.91250e-16
      7616.00  2.93208e-16
      7618.00  3.00465e-16
      7620.00  2.99784e-16
      7622.00  2.82829e-16
      7624.00  2.61424e-16
      7626.00  2.57720e-16
      7628.00  2.65808e-16
      7630.00  2.72294e-16
      7632.00  2.89475e-16
      7634.00  2.92846e-16
      7636.00  2.75976e-16
      7638.00  2.57167e-16
      7640.00  2.52790e-16
      7642.00  2.55815e-16
      7644.00  2.59813e-16
      7646.00  2.74145e-16
      7648.00  2.75473e-16
      7650.00  2.63280e-16
      7652.00  2.51483e-16
      7654.00  2.44920e-16
      7656.00  2.41040e-16
      7658.00  2.43665e-16
      7660.00  2.55571e-16
      7662.00  2.61552e-16
      7664.00  2.68142e-16
      7666.00  2.69601e-16
      7668.00  2.62199e-16
      7670.00  2.52688e-16
      7672.00  2.51835e-16
      7674.00  2.57962e-16
      7676.00  2.53987e-16
      7678.00  2.39997e-16
      7680.00  2.32524e-16
      7682.00  2.29912e-16
      7684.00  2.31016e-16
      7686.00  2.37014e-16
      7688.00  2.47429e-16
      7690.00  2.53018e-16
      7692.00  2.60342e-16
      7694.00  2.58180e-16
      7696.00  2.42089e-16
      7698.00  2.31506e-16
      7700.00  2.34243e-16
      7702.00  2.42901e-16
      7704.00  2.47633e-16
      7706.00  2.55069e-16
      7708.00  2.52921e-16
      7710.00  2.39369e-16
      7712.00  2.30789e-16
      7714.00  2.28434e-16
      7716.00  2.28542e-16
      7718.00  2.29094e-16
      7720.00  2.31371e-16
      7722.00  2.31743e-16
      7724.00  2.30097e-16
      7726.00  2.30555e-16
      7728.00  2.33220e-16
      7730.00  2.36020e-16
      7732.00  2.38205e-16
      7734.00  2.40101e-16
      7736.00  2.40079e-16
      7738.00  2.36385e-16
      7740.00  2.36923e-16
      7742.00  2.39881e-16
      7744.00  2.43987e-16
      7746.00  2.51671e-16
      7748.00  2.58544e-16
      7750.00  2.53821e-16
      7752.00  2.36561e-16
      7754.00  2.33599e-16
      7756.00  2.40817e-16
      7758.00  2.45316e-16
      7760.00  2.47716e-16
      7762.00  2.49257e-16
      7764.00  2.50181e-16
      7766.00  2.50459e-16
      7768.00  2.48611e-16
      7770.00  2.45538e-16
      7772.00  2.39925e-16
      7774.00  2.27258e-16
      7776.00  2.20024e-16
      7778.00  2.25704e-16
      7780.00  2.37874e-16
      7782.00  2.42495e-16
      7784.00  2.43602e-16
      7786.00  2.45461e-16
      7788.00  2.44122e-16
      7790.00  2.47281e-16
      7792.00  2.60495e-16
      7794.00  2.73124e-16
      7796.00  2.68671e-16
      7798.00  2.49587e-16
      7800.00  2.45738e-16
      7802.00  2.50250e-16
      7804.00  2.54755e-16
      7806.00  2.64223e-16
      7808.00  2.69643e-16
      7810.00  2.62596e-16
      7812.00  2.47428e-16
      7814.00  2.38667e-16
      7816.00  2.25765e-16
      7818.00  2.27106e-16
      7820.00  2.45646e-16
      7822.00  2.60422e-16
      7824.00  2.65217e-16
      7826.00  2.65541e-16
      7828.00  2.64987e-16
      7830.00  2.60301e-16
      7832.00  2.59813e-16
      7834.00  2.63169e-16
      7836.00  2.63847e-16
      7838.00  2.60564e-16
      7840.00  2.56735e-16
      7842.00  2.55940e-16
      7844.00  2.57168e-16
      7846.00  2.54512e-16
      7848.00  2.47445e-16
      7850.00  2.43859e-16
      7852.00  2.41828e-16
      7854.00  2.42435e-16
      7856.00  2.47588e-16
      7858.00  2.55692e-16
      7860.00  2.59515e-16
      7862.00  2.61683e-16
      7864.00  2.62070e-16
      7866.00  2.60729e-16
      7868.00  2.57614e-16
      7870.00  2.50581e-16
      7872.00  2.43473e-16
      7874.00  2.43971e-16
      7876.00  2.50182e-16
      7878.00  2.55605e-16
      7880.00  2.67449e-16
      7882.00  2.69935e-16
      7884.00  2.59385e-16
      7886.00  2.47976e-16
      7888.00  2.44431e-16
      7890.00  2.44425e-16
      7892.00  2.52204e-16
      7894.00  2.78812e-16
      7896.00  2.83369e-16
      7898.00  2.67671e-16
      7900.00  2.51884e-16
      7902.00  2.40516e-16
      7904.00  2.32043e-16
      7906.00  2.37435e-16
      7908.00  2.60459e-16
      7910.00  2.70305e-16
      7912.00  2.76337e-16
      7914.00  2.78305e-16
      7916.00  2.73084e-16
      7918.00  2.66914e-16
      7920.00  2.69025e-16
      7922.00  2.76478e-16
      7924.00  2.82139e-16
      7926.00  2.93864e-16
      7928.00  2.94229e-16
      7930.00  2.80600e-16
      7932.00  2.65905e-16
      7934.00  2.56244e-16
      7936.00  2.48640e-16
      7938.00  2.52634e-16
      7940.00  2.75657e-16
      7942.00  2.81619e-16
      7944.00  2.77721e-16
      7946.00  2.70924e-16
      7948.00  2.60972e-16
      7950.00  2.49469e-16
      7952.00  2.43413e-16
      7954.00  2.40021e-16
      7956.00  2.39633e-16
      7958.00  2.45252e-16
      7960.00  2.47583e-16
      7962.00  2.44147e-16
      7964.00  2.41626e-16
      7966.00  2.47270e-16
      7968.00  2.58910e-16
      7970.00  2.63295e-16
      7972.00  2.63164e-16
      7974.00  2.63825e-16
      7976.00  2.63821e-16
      7978.00  2.64145e-16
      7980.00  2.66061e-16
      7982.00  2.68462e-16
      7984.00  2.67196e-16
      7986.00  2.61296e-16
      7988.00  2.59519e-16
      7990.00  2.60131e-16
      7992.00  2.60702e-16
      7994.00  2.60622e-16
      7996.00  2.60828e-16
      7998.00  2.62370e-16
      8000.00  2.64974e-16
      8002.00  2.67747e-16
      8004.00  2.72411e-16
      8006.00  2.74540e-16
      8008.00  2.73827e-16
      8010.00  2.72202e-16
      8012.00  2.71200e-16
      8014.00  2.70132e-16
      8016.00  2.66598e-16
      8018.00  2.58202e-16
      8020.00  2.55541e-16
      8022.00  2.56966e-16
      8024.00  2.60042e-16
      8026.00  2.64799e-16
      8028.00  2.70688e-16
      8030.00  2.74509e-16
      8032.00  2.79281e-16
      8034.00  2.77564e-16
      8036.00  2.68460e-16
      8038.00  2.61193e-16
      8040.00  2.55164e-16
      8042.00  2.51200e-16
      8044.00  2.52474e-16
      8046.00  2.58681e-16
      8048.00  2.61145e-16
      8050.00  2.63669e-16
      8052.00  2.63139e-16
      8054.00  2.57685e-16
      8056.00  2.53177e-16
      8058.00  2.53138e-16
      8060.00  2.55617e-16
      8062.00  2.59071e-16
      8064.00  2.66184e-16
      8066.00  2.69735e-16
      8068.00  2.70574e-16
      8070.00  2.71928e-16
      8072.00  2.75586e-16
      8074.00  2.79031e-16
      8076.00  2.77745e-16
      8078.00  2.72832e-16
      8080.00  2.67565e-16
      8082.00  2.57201e-16
      8084.00  2.52969e-16
      8086.00  2.57379e-16
      8088.00  2.62908e-16
      8090.00  2.62643e-16
      8092.00  2.59325e-16
      8094.00  2.59291e-16
      8096.00  2.61895e-16
      8098.00  2.62379e-16
      8100.00  2.62034e-16
      8102.00  2.60137e-16
      8104.00  2.54756e-16
      8106.00  2.47974e-16
      8108.00  2.48307e-16
      8110.00  2.54798e-16
      8112.00  2.59548e-16
      8114.00  2.69550e-16
      8116.00  2.71543e-16
      8118.00  2.59122e-16
      8120.00  2.43837e-16
      8122.00  2.42557e-16
      8124.00  2.51482e-16
      8126.00  2.50736e-16
      8128.00  2.41856e-16
      8130.00  2.39675e-16
      8132.00  2.46382e-16
      8134.00  2.52197e-16
      8136.00  2.49728e-16
      8138.00  2.42583e-16
      8140.00  2.39222e-16
      8142.00  2.33980e-16
      8144.00  2.35992e-16
      8146.00  2.49415e-16
      8148.00  2.56902e-16
      8150.00  2.51154e-16
      8152.00  2.39406e-16
      8154.00  2.32291e-16
      8156.00  2.23971e-16
      8158.00  2.22148e-16
      8160.00  2.28943e-16
      8162.00  2.31176e-16
      8164.00  2.27124e-16
      8166.00  2.21404e-16
      8168.00  2.17168e-16
      8170.00  2.12215e-16
      8172.00  2.14157e-16
      8174.00  2.23715e-16
      8176.00  2.30686e-16
      8178.00  2.38114e-16
      8180.00  2.42991e-16
      8182.00  2.42207e-16
      8184.00  2.37928e-16
      8186.00  2.38047e-16
      8188.00  2.41470e-16
      8190.00  2.42392e-16
      8192.00  2.45476e-16
      8194.00  2.42402e-16
      8196.00  2.27340e-16
      8198.00  2.09382e-16
      8200.00  2.04869e-16
      8202.00  2.09511e-16
      8204.00  2.11884e-16
      8206.00  2.17758e-16
      8208.00  2.20452e-16
      8210.00  2.19079e-16
      8212.00  2.17045e-16
      8214.00  2.16627e-16
      8216.00  2.16625e-16
      8218.00  2.19530e-16
      8220.00  2.27103e-16
      8222.00  2.30873e-16
      8224.00  2.34778e-16
      8226.00  2.33481e-16
      8228.00  2.22056e-16
      8230.00  2.05441e-16
      8232.00  1.98144e-16
      8234.00  1.96335e-16
      8236.00  1.94242e-16
      8238.00  1.96316e-16
      8240.00  1.94716e-16
      8242.00  1.84812e-16
      8244.00  1.75525e-16
      8246.00  1.80025e-16
      8248.00  1.95915e-16
      8250.00  2.01888e-16
      8252.00  2.05962e-16
      8254.00  2.04429e-16
      8256.00  1.90944e-16
      8258.00  1.81972e-16
      8260.00  1.92171e-16
      8262.00  2.13831e-16
      8264.00  2.18616e-16
      8266.00  2.10515e-16
      8268.00  2.09015e-16
      8270.00  2.10559e-16
      8272.00  2.10937e-16
      8274.00  2.09252e-16
      8276.00  2.06132e-16
      8278.00  2.00692e-16
      8280.00  1.89602e-16
      8282.00  1.89280e-16
      8284.00  2.02167e-16
      8286.00  2.06036e-16
      8288.00  1.97367e-16
      8290.00  1.86156e-16
      8292.00  1.80104e-16
      8294.00  1.74902e-16
      8296.00  1.79989e-16
      8298.00  2.02127e-16
      8300.00  2.09735e-16
      8302.00  2.03216e-16
      8304.00  1.96787e-16
      8306.00  1.99432e-16
      8308.00  2.04807e-16
      8310.00  1.96535e-16
      8312.00  1.69903e-16
      8314.00  1.61505e-16
      8316.00  1.63039e-16
      8318.00  1.67540e-16
      8320.00  1.74930e-16
      8322.00  1.84630e-16
      8324.00  1.94302e-16
      8326.00  2.08010e-16
      8328.00  2.08423e-16
      8330.00  1.91058e-16
      8332.00  1.86289e-16
      8334.00  1.98160e-16
      8336.00  2.09921e-16
      8338.00  2.08605e-16
      8340.00  2.00054e-16
      8342.00  1.93693e-16
      8344.00  1.82694e-16
      8346.00  1.78970e-16
      8348.00  1.82222e-16
      8350.00  1.85906e-16
      8352.00  1.87831e-16
      8354.00  1.89500e-16
      8356.00  1.91153e-16
      8358.00  1.91964e-16
      8360.00  1.94848e-16
      8362.00  2.02002e-16
      8364.00  2.04484e-16
      8366.00  2.01615e-16
      8368.00  1.94897e-16
      8370.00  1.83263e-16
      8372.00  1.64164e-16
      8374.00  1.60218e-16
      8376.00  1.67047e-16
      8378.00  1.75474e-16
      8380.00  1.92436e-16
      8382.00  2.04614e-16
      8384.00  2.00695e-16
      8386.00  1.87094e-16
      8388.00  1.83220e-16
      8390.00  1.83718e-16
      8392.00  1.83771e-16
      8394.00  1.85311e-16
      8396.00  1.86630e-16
      8398.00  1.87659e-16
      8400.00  1.88202e-16
      8402.00  1.86375e-16
      8404.00  1.79094e-16
      8406.00  1.84312e-16
      8408.00  2.04188e-16
      8410.00  2.15653e-16
      8412.00  2.19937e-16
      8414.00  2.17749e-16
      8416.00  2.04741e-16
      8418.00  1.80546e-16
      8420.00  1.74291e-16
      8422.00  1.83644e-16
      8424.00  1.84989e-16
      8426.00  1.80603e-16
      8428.00  1.76905e-16
      8430.00  1.75696e-16
      8432.00  1.76250e-16
      8434.00  1.82423e-16
      8436.00  2.00878e-16
      8438.00  2.02836e-16
      8440.00  1.90834e-16
      8442.00  1.81875e-16
      8444.00  1.77124e-16
      8446.00  1.75666e-16
      8448.00  1.81481e-16
      8450.00  1.96521e-16
      8452.00  1.99561e-16
      8454.00  1.93490e-16
      8456.00  1.90110e-16
      8458.00  1.86227e-16
      8460.00  1.85939e-16
      8462.00  1.96914e-16
      8464.00  2.16096e-16
      8466.00  2.11625e-16
      8468.00  1.82062e-16
      8470.00  1.68079e-16
      8472.00  1.57034e-16
      8474.00  1.56164e-16
      8476.00  1.73629e-16
      8478.00  1.99540e-16
      8480.00  2.07568e-16
      8482.00  2.04648e-16
      8484.00  2.03030e-16
      8486.00  1.95750e-16
      8488.00  1.92325e-16
      8490.00  1.93025e-16
      8492.00  1.96823e-16
      8494.00  2.04812e-16
      8496.00  2.18030e-16
      8498.00  2.23830e-16
      8500.00  2.27124e-16
      8502.00  2.25378e-16
      8504.00  2.17622e-16
      8506.00  2.07305e-16
      8508.00  1.95339e-16
      8510.00  1.81502e-16
      8512.00  1.72220e-16
      8514.00  1.60622e-16
      8516.00  1.62258e-16
      8518.00  1.79639e-16
      8520.00  1.93716e-16
      8522.00  2.03256e-16
      8524.00  2.07468e-16
      8526.00  1.95127e-16
      8528.00  1.59986e-16
      8530.00  1.54971e-16
      8532.00  1.72208e-16
      8534.00  1.85827e-16
      8536.00  2.01616e-16
      8538.00  2.11448e-16
      8540.00  2.01836e-16
      8542.00  1.76765e-16
      8544.00  1.70353e-16
      8546.00  1.72764e-16
      8548.00  1.78914e-16
      8550.00  1.95607e-16
      8552.00  2.08091e-16
      8554.00  2.08628e-16
      8556.00  2.02957e-16
      8558.00  1.99868e-16
      8560.00  1.93932e-16
      8562.00  1.93339e-16
      8564.00  1.97280e-16
      8566.00  2.01083e-16
      8568.00  2.05513e-16
      8570.00  2.08906e-16
      8572.00  2.07244e-16
      8574.00  2.01422e-16
      8576.00  1.96342e-16
      8578.00  1.89376e-16
      8580.00  1.83831e-16
      8582.00  1.78288e-16
      8584.00  1.75051e-16
      8586.00  1.75905e-16
      8588.00  1.79956e-16
      8590.00  1.87381e-16
      8592.00  2.03650e-16
      8594.00  2.10400e-16
      8596.00  2.09262e-16
      8598.00  2.08401e-16
      8600.00  2.10786e-16
      8602.00  2.13594e-16
      8604.00  2.13425e-16
      8606.00  2.12523e-16
      8608.00  2.06792e-16
      8610.00  1.90661e-16
      8612.00  1.84277e-16
      8614.00  1.94098e-16
      8616.00  2.04887e-16
      8618.00  1.98930e-16
      8620.00  1.81017e-16
      8622.00  1.79194e-16
      8624.00  1.88561e-16
      8626.00  1.95491e-16
      8628.00  2.03315e-16
      8630.00  2.09912e-16
      8632.00  2.12807e-16
      8634.00  2.13759e-16
      8636.00  2.19176e-16
      8638.00  2.33681e-16
      8640.00  2.33813e-16
      8642.00  2.19427e-16
      8644.00  2.09961e-16
      8646.00  2.08933e-16
      8648.00  2.12602e-16
      8650.00  2.21075e-16
      8652.00  2.39208e-16
      8654.00  2.41189e-16
      8656.00  2.29531e-16
      8658.00  2.21140e-16
      8660.00  2.13383e-16
      8662.00  2.08529e-16
      8664.00  2.09787e-16
      8666.00  2.15607e-16
      8668.00  2.26829e-16
      8670.00  2.52315e-16
      8672.00  2.62228e-16
      8674.00  2.58810e-16
      8676.00  2.53735e-16
      8678.00  2.49067e-16
      8680.00  2.44737e-16
      8682.00  2.51052e-16
      8684.00  2.73807e-16
      8686.00  2.76187e-16
      8688.00  2.64990e-16
      8690.00  2.52469e-16
      8692.00  2.34961e-16
      8694.00  2.19800e-16
      8696.00  2.21827e-16
      8698.00  2.38303e-16
      8700.00  2.44948e-16
      8702.00  2.47522e-16
      8704.00  2.52371e-16
      8706.00  2.61810e-16
      8708.00  2.68039e-16
      8710.00  2.65409e-16
      8712.00  2.56881e-16
      8714.00  2.48153e-16
      8716.00  2.28191e-16
      8718.00  2.27242e-16
      8720.00  2.43893e-16
      8722.00  2.60280e-16
      8724.00  2.74635e-16
      8726.00  2.86375e-16
      8728.00  2.84308e-16
      8730.00  2.67013e-16
      8732.00  2.60345e-16
      8734.00  2.56164e-16
      8736.00  2.55059e-16
      8738.00  2.58276e-16
      8740.00  2.63072e-16
      8742.00  2.66835e-16
      8744.00  2.71080e-16
      8746.00  2.71964e-16
      8748.00  2.67087e-16
      8750.00  2.68201e-16
      8752.00  2.78112e-16
      8754.00  2.83989e-16
      8756.00  2.78263e-16
      8758.00  2.66048e-16
      8760.00  2.57099e-16
      8762.00  2.42278e-16
      8764.00  2.41172e-16
      8766.00  2.49915e-16
      8768.00  2.63124e-16
      8770.00  2.86062e-16
      8772.00  3.08646e-16
      8774.00  3.09470e-16
      8776.00  2.93294e-16
      8778.00  2.81819e-16
      8780.00  2.59140e-16
      8782.00  2.53036e-16
      8784.00  2.67798e-16
      8786.00  2.86534e-16
      8788.00  2.98757e-16
      8790.00  3.09973e-16
      8792.00  3.06520e-16
      8794.00  2.82053e-16
      8796.00  2.72628e-16
      8798.00  2.70539e-16
      8800.00  2.73706e-16
      8802.00  2.85676e-16
      8804.00  3.01301e-16
      8806.00  3.01232e-16
      8808.00  2.86940e-16
      8810.00  2.81337e-16
      8812.00  2.75758e-16
      8814.00  2.75297e-16
      8816.00  2.84575e-16
      8818.00  2.94168e-16
      8820.00  2.91230e-16
      8822.00  2.79675e-16
      8824.00  2.71388e-16
      8826.00  2.59662e-16
      8828.00  2.53509e-16
      8830.00  2.50103e-16
      8832.00  2.52806e-16
      8834.00  2.67367e-16
      8836.00  2.90095e-16
      8838.00  2.97452e-16
      8840.00  2.94055e-16
      8842.00  2.92104e-16
      8844.00  2.84673e-16
      8846.00  2.81602e-16
      8848.00  2.88454e-16
      8850.00  2.97777e-16
      8852.00  2.95482e-16
      8854.00  2.83023e-16
      8856.00  2.79536e-16
      8858.00  2.79651e-16
      8860.00  2.81735e-16
      8862.00  2.90346e-16
      8864.00  2.95776e-16
      8866.00  2.85810e-16
      8868.00  2.64218e-16
      8870.00  2.53915e-16
      8872.00  2.47894e-16
      8874.00  2.44202e-16
      8876.00  2.46575e-16
      8878.00  2.46488e-16
      8880.00  2.35927e-16
      8882.00  2.21938e-16
      8884.00  2.28590e-16
      8886.00  2.61231e-16
      8888.00  2.69267e-16
      8890.00  2.62735e-16
      8892.00  2.55765e-16
      8894.00  2.47786e-16
      8896.00  2.40829e-16
      8898.00  2.42957e-16
      8900.00  2.53905e-16
      8902.00  2.55438e-16
      8904.00  2.47332e-16
      8906.00  2.48103e-16
      8908.00  2.59908e-16
      8910.00  2.72362e-16
      8912.00  2.79896e-16
      8914.00  2.85442e-16
      8916.00  2.78436e-16
      8918.00  2.52422e-16
      8920.00  2.40670e-16
      8922.00  2.32826e-16
      8924.00  2.34686e-16
      8926.00  2.53842e-16
      8928.00  2.80731e-16
      8930.00  2.89361e-16
      8932.00  2.85912e-16
      8934.00  2.85419e-16
      8936.00  2.79287e-16
      8938.00  2.79338e-16
      8940.00  2.90177e-16
      8942.00  3.01654e-16
      8944.00  3.01496e-16
      8946.00  2.93169e-16
      8948.00  2.92389e-16
      8950.00  2.96294e-16
      8952.00  2.97753e-16
      8954.00  2.99449e-16
      8956.00  2.97798e-16
      8958.00  2.88765e-16
      8960.00  2.75082e-16
      8962.00  2.68677e-16
      8964.00  2.68820e-16
      8966.00  2.63723e-16
      8968.00  2.49897e-16
      8970.00  2.46256e-16
      8972.00  2.61614e-16
      8974.00  2.83681e-16
      8976.00  2.93456e-16
      8978.00  3.01409e-16
      8980.00  2.92531e-16
      8982.00  2.53590e-16
      8984.00  2.38684e-16
      8986.00  2.54090e-16
      8988.00  2.75617e-16
      8990.00  2.86303e-16
      8992.00  2.94731e-16
      8994.00  2.89030e-16
      8996.00  2.64777e-16
      8998.00  2.49225e-16
      9000.00  2.33628e-16
      9002.00  2.25372e-16
      9004.00  2.29970e-16
      9006.00  2.42681e-16
      9008.00  2.52090e-16
      9010.00  2.67612e-16
      9012.00  2.69770e-16
      9014.00  2.56930e-16
      9016.00  2.50444e-16
      9018.00  2.54094e-16
      9020.00  2.61389e-16
      9022.00  2.67169e-16
      9024.00  2.74519e-16
      9026.00  2.77256e-16
      9028.00  2.77130e-16
      9030.00  2.74833e-16
      9032.00  2.70012e-16
      9034.00  2.63278e-16
      9036.00  2.52841e-16
      9038.00  2.39559e-16
      9040.00  2.40861e-16
      9042.00  2.58368e-16
      9044.00  2.66699e-16
      9046.00  2.71597e-16
      9048.00  2.75099e-16
      9050.00  2.80227e-16
      9052.00  2.82714e-16
      9054.00  2.70543e-16
      9056.00  2.41048e-16
      9058.00  2.25722e-16
      9060.00  2.09767e-16
      9062.00  2.08485e-16
      9064.00  2.29799e-16
      9066.00  2.55633e-16
      9068.00  2.66288e-16
      9070.00  2.69766e-16
      9072.00  2.72381e-16
      9074.00  2.69758e-16
      9076.00  2.69246e-16
      9078.00  2.72621e-16
      9080.00  2.72061e-16
      9082.00  2.61123e-16
      9084.00  2.44429e-16
      9086.00  2.38064e-16
      9088.00  2.42475e-16
      9090.00  2.36629e-16
      9092.00  2.18224e-16
      9094.00  2.10894e-16
      9096.00  2.23548e-16
      9098.00  2.43276e-16
      9100.00  2.52105e-16
      9102.00  2.57275e-16
      9104.00  2.58396e-16
      9106.00  2.51066e-16
      9108.00  2.49053e-16
      9110.00  2.56498e-16
      9112.00  2.60929e-16
      9114.00  2.48939e-16
      9116.00  2.25314e-16
      9118.00  2.22606e-16
      9120.00  2.38887e-16
      9122.00  2.44590e-16
      9124.00  2.47114e-16
      9126.00  2.44659e-16
      9128.00  2.33379e-16
      9130.00  2.17670e-16
      9132.00  2.12118e-16
      9134.00  2.13112e-16
      9136.00  2.13761e-16
      9138.00  2.15147e-16
      9140.00  2.20129e-16
      9142.00  2.31157e-16
      9144.00  2.43408e-16
      9146.00  2.51014e-16
      9148.00  2.57729e-16
      9150.00  2.54402e-16
      9152.00  2.36171e-16
      9154.00  2.27434e-16
      9156.00  2.29381e-16
      9158.00  2.30353e-16
      9160.00  2.21991e-16
      9162.00  2.08791e-16
      9164.00  2.03724e-16
      9166.00  2.01431e-16
      9168.00  2.04740e-16
      9170.00  2.16793e-16
      9172.00  2.26985e-16
      9174.00  2.34405e-16
      9176.00  2.38504e-16
      9178.00  2.31617e-16
      9180.00  2.09536e-16
      9182.00  2.04918e-16
      9184.00  2.07343e-16
      9186.00  2.17934e-16
      9188.00  2.46525e-16
      9190.00  2.71824e-16
      9192.00  2.67798e-16
      9194.00  2.43009e-16
      9196.00  2.31995e-16
      9198.00  2.21296e-16
      9200.00  2.17502e-16
      9202.00  2.21103e-16
      9204.00  2.27590e-16
      9206.00  2.36545e-16
      9208.00  2.47464e-16
      9210.00  2.51099e-16
      9212.00  2.49103e-16
      9214.00  2.47341e-16
      9216.00  2.39657e-16
      9218.00  2.38534e-16
      9220.00  2.50727e-16
      9222.00  2.65049e-16
      9224.00  2.62801e-16
      9226.00  2.45437e-16
      9228.00  2.47647e-16
      9230.00  2.72209e-16
      9232.00  2.77074e-16
      9234.00  2.58394e-16
      9236.00  2.35976e-16
      9238.00  2.23096e-16
      9240.00  2.13337e-16
      9242.00  2.07328e-16
      9244.00  2.08022e-16
      9246.00  2.05008e-16
      9248.00  1.97108e-16
      9250.00  1.93978e-16
      9252.00  2.00767e-16
      9254.00  2.12519e-16
      9256.00  2.19710e-16
      9258.00  2.29081e-16
      9260.00  2.27848e-16
      9262.00  2.11258e-16
      9264.00  2.04429e-16
      9266.00  2.11899e-16
      9268.00  2.23771e-16
      9270.00  2.31352e-16
      9272.00  2.39136e-16
      9274.00  2.40955e-16
      9276.00  2.31191e-16
      9278.00  2.33819e-16
      9280.00  2.50889e-16
      9282.00  2.67900e-16
      9284.00  2.78673e-16
      9286.00  2.86121e-16
      9288.00  2.78692e-16
      9290.00  2.50091e-16
      9292.00  2.35142e-16
      9294.00  2.23147e-16
      9296.00  2.17139e-16
      9298.00  2.18276e-16
      9300.00  2.25190e-16
      9302.00  2.34833e-16
      9304.00  2.41265e-16
      9306.00  2.78708e-16
      9308.00  3.76235e-16
      9310.00  4.14714e-16
      9312.00  3.75840e-16
      9314.00  3.18834e-16
      9316.00  2.87824e-16
      9318.00  2.59797e-16
      9320.00  2.74056e-16
      9322.00  3.60265e-16
      9324.00  3.80423e-16
      9326.00  3.41673e-16
      9328.00  2.98967e-16
      9330.00  2.71092e-16
      9332.00  2.48238e-16
      9334.00  2.45700e-16
      9336.00  2.72554e-16
      9338.00  2.75873e-16
      9340.00  2.70678e-16
      9342.00  2.58961e-16
      9344.00  2.34654e-16
      9346.00  2.09300e-16
      9348.00  2.03357e-16
      9350.00  2.09965e-16
      9352.00  2.19879e-16
      9354.00  2.48890e-16
      9356.00  2.57296e-16
      9358.00  2.34817e-16
      9360.00  2.17267e-16
      9362.00  2.34767e-16
      9364.00  2.73165e-16
      9366.00  2.88006e-16
      9368.00  3.02485e-16
      9370.00  2.90285e-16
      9372.00  2.47534e-16
      9374.00  2.02017e-16
      9376.00  1.57093e-16
      9378.00  1.13871e-16
      9380.00  9.29829e-17
      9382.00  8.13617e-17
      9384.00  1.01114e-16
      9386.00  1.77839e-16
      9388.00  2.16553e-16
      9390.00  2.01254e-16
      9392.00  1.70989e-16
      9394.00  1.59234e-16
      9396.00  1.49435e-16
      9398.00  1.59509e-16
      9400.00  2.01261e-16
      9402.00  2.18761e-16
      9404.00  2.19024e-16
      9406.00  2.08848e-16
      9408.00  1.85241e-16
      9410.00  1.51461e-16
      9412.00  1.40884e-16
      9414.00  1.43129e-16
      9416.00  1.53334e-16
      9418.00  1.87435e-16
      9420.00  2.05046e-16
      9422.00  1.96016e-16
      9424.00  1.72061e-16
      9426.00  1.39954e-16
      9428.00  8.07971e-17
      9430.00  7.69455e-17
      9432.00  1.18719e-16
      9434.00  1.57775e-16
      9436.00  2.01495e-16
      9438.00  2.42848e-16
      9440.00  2.70424e-16
      9442.00  2.89036e-16
      9444.00  3.06767e-16
      9446.00  3.34305e-16
      9448.00  3.28116e-16
      9450.00  2.79130e-16
      9452.00  2.35482e-16
      9454.00  2.23013e-16
      9456.00  2.20979e-16
      9458.00  1.88653e-16
      9460.00  1.05724e-16
      9462.00  1.04305e-16
      9464.00  1.76827e-16
      9466.00  2.31663e-16
      9468.00  2.56456e-16
      9470.00  2.72276e-16
      9472.00  2.95323e-16
      9474.00  3.26546e-16
      9476.00  3.15180e-16
      9478.00  2.59077e-16
      9480.00  2.15361e-16
      9482.00  1.59301e-16
      9484.00  1.30739e-16
      9486.00  1.78521e-16
      9488.00  2.77874e-16
      9490.00  2.86376e-16
      9492.00  2.16226e-16
      9494.00  1.90626e-16
      9496.00  1.75152e-16
      9498.00  1.76957e-16
      9500.00  2.10317e-16
      9502.00  2.55145e-16
      9504.00  2.58235e-16
      9506.00  2.20277e-16
      9508.00  2.27329e-16
      9510.00  2.71024e-16
      9512.00  2.98156e-16
      9514.00  3.09318e-16
      9516.00  3.08406e-16
      9518.00  2.89385e-16
      9520.00  2.50338e-16
      9522.00  2.36821e-16
      9524.00  2.47355e-16
      9526.00  2.38939e-16
      9528.00  2.14222e-16
      9530.00  1.86655e-16
      9532.00  1.58319e-16
      9534.00  1.29556e-16
      9536.00  1.23162e-16
      9538.00  1.37916e-16
      9540.00  1.50219e-16
      9542.00  1.77841e-16
      9544.00  1.90422e-16
      9546.00  1.75382e-16
      9548.00  1.51613e-16
      9550.00  1.46997e-16
      9552.00  1.52418e-16
      9554.00  1.56951e-16
      9556.00  1.69455e-16
      9558.00  1.73366e-16
      9560.00  1.57343e-16
      9562.00  1.50992e-16
      9564.00  1.86782e-16
      9566.00  2.52636e-16
      9568.00  2.74140e-16
      9570.00  2.55138e-16
      9572.00  2.65275e-16
      9574.00  3.14813e-16
      9576.00  3.35045e-16
      9578.00  2.82118e-16
      9580.00  1.98114e-16
      9582.00  1.83799e-16
      9584.00  2.22171e-16
      9586.00  2.34077e-16
      9588.00  2.43486e-16
      9590.00  2.49901e-16
      9592.00  2.52800e-16
      9594.00  2.53223e-16
      9596.00  2.52958e-16
      9598.00  2.52041e-16
      9600.00  2.44766e-16
      9602.00  2.28292e-16
      9604.00  2.17264e-16
      9606.00  2.03904e-16
      9608.00  2.01592e-16
      9610.00  2.25645e-16
      9612.00  2.67344e-16
      9614.00  2.82111e-16
      9616.00  2.88562e-16
      9618.00  2.76386e-16
      9620.00  2.32411e-16
      9622.00  2.00102e-16
      9624.00  1.91370e-16
      9626.00  1.95125e-16
      9628.00  2.05617e-16
      9630.00  2.34733e-16
      9632.00  2.37982e-16
      9634.00  2.24431e-16
      9636.00  2.07906e-16
      9638.00  1.79886e-16
      9640.00  1.56950e-16
      9642.00  1.60651e-16
      9644.00  1.83551e-16
      9646.00  1.99830e-16
      9648.00  2.27848e-16
      9650.00  2.36060e-16
