# SIMPLE = T / Written by IDL: Thu Nov 8 10:57:23 2012 
# BITPIX = -32 / IEEE single precision floating point 
# NAXIS = 1 / Number of axes 
# NAXIS1 = 3376 / 
# EXTEND = T / File may contain extensions 
# ORIGIN = 'NOAO-IRAF FITS Image Kernel July 2003' / FITS file originator 
# DATE = '2012-11-08T07:02:42' / Date FITS file was generated 
# IRAF-TLM= '2012-11-08T07:02:42' / Time of last modification 
# COMMENT FITS (Flexible Image Transport System) format defined in Astronomy and
# COMMENT Astrophysics Supplement Series v44/p363, v44/p371, v73/p359, v73/p365.
# COMMENT Contact the NASA Science Office of Standards and Technology for the 
# COMMENT FITS Definition document #100 and other FITS information. 
# OBJECT = 'PTF12kgt' / object title 
# IMGTYPE = 'object ' / observation type 
# GAIN = 2. / e-/adu 
# RON = 7.5 / electrons 
# DICHROIC= 'D55 ' / Dichroic 
# APERTURE= '1.5 ' / aperture (arcsecs) 
# TURRET = 'APERTURE' / turret position 
# LAMPS = '0000000 ' / lamps: D-FeAr-Hg-Ar-Ne-He-InCand 
# RFILTER = 'OPEN ' / filter wheel 
# OEXPTIME= 900. / originaly req. exposure time 
# EXPTIME = 900. / actual exposure time 
# UTSHUT = '2012-11-07T07:37:10.972' / UT shutter open 
# NAMPSXY = '1 1 ' / number of amplifiers in y x 
# CCDSUM = '1 1 ' / binning in x y 
# ASEC1 = '[1:1124,1:300]' / amplifier section 1(LL) 
# BSEC1 = '[1075:1124,1:300]' / bias section 1(LL) 
# CSEC1 = '[1:1074,1:300]' / ccd section 1(LL) 
# DSEC1 = '[1:1074,1:300]' / data section 1(LL) 
# TSEC1 = '[51:1074,1:300]' / trim section 1(LL) 
# ROISEC = '[1:1024,305:604]' / roi section 
# DETID = 'Site424_1' / detector ID 
# DETNUM = '1 ' / Detector Number 
# DETNAM = 'Site424 ' / detector name 
# FPA = 'DBSP_RED' / focal plan array 
# UTC = '312 07:37:11.1' / <elapsed days> <time-obs> 
# UT = '07:37:11.1' / time-obs 
# OBSLST = '02:57:22.9' / lst-obs 
# RA = '01:11:26.93' / Right Ascencion 
# DEC = '+33:52:01.6' / Declination 
# HOURANG = 'W01:45:10.6' / Hour angle, TCS format 
# HA = '+01:45:10.6' / Hour angle 
# AIRMASS = '1.090892' / Airmass 
# TELID = '200 ' / telescope ID 
# TELFOCUS= '40.81 mm' / focus position 
# CASSPA = '83.00 ' / cass ring angle 
# PARALLAC= '84.20 ' / parallactic angle 
# DHE = 'CCD8 Palomar Camera controller' / detector controller 
# CCDTEMP = '153.00 ' / ccd temp (k) 
# GCOMMENT= ' ' / comment 
# SOFTVER = '3.4 ' / software version 
# HDR_REV = '3.9 ' / gfits version 
# GRATING = '158/7500' / lines/mm-blaze 
# ANGLE = '20.983 deg' / Grating Angle 
# OBSNUM = 57 
# DATE-OBS= '2012-11-07' 
# OBSERVAT= 'palomar ' 
# TIME = '07:37:11.1' 
# OPT_PA = 83.316186789911 
# TELESCOP= 'P200 ' 
# ST = '2:57:22.25' 
# EPOCH = 2012.85097190854 
# UTMIDDLE= '2012-11-07T07:44:41.10' 
# BANDID1 = 'spectrum - background fit, weights variance, clean yes' 
# BANDID2 = 'raw - background fit, weights none, clean no' 
# BANDID3 = 'background - background fit' 
# BANDID4 = 'sigma - background fit, weights variance, clean yes' 
# APNUM1 = '1 1 87.06 97.06' 
# CRVAL1 = 3200.00 / 
# CRPIX1 = 1 / 
# DC-FLAG = 0 
# DCLOG1 = 'REFSPEC1 = arc_redc.ms' 
# FLUX_Z = 1.06134400000 / 
# FLUX_NUM= 66 / 
# FLUX_OBJ= 'G191B2B ' / 
# OBS_PA = 83.0000000000 /observed position angle 
# CDELT1 = 2.00000 / 
# CTYPE1 = 'LINEAR ' / 
# W_RANGE = '5200 9950' / 
# BSTAR_Z = 1.06134400000 / 
# BSTARNUM= 66 / 
# BSTAROBJ= 'G191B2B ' / 
# BARYVEL = -27.3046371351 / 
# SKYSHIFT= -1.46638700984 / 
# ATMSHIFT= 3.91000924199 / 
# EXTRACT = 'optimal ' / 
# REDUCER = 'admin ' / 
# RED_DATE= 'Thu Nov 8 10:57:23 2012' /EPOCH OF REDUCTION 
# END 
# 
      3200.00  7.59114e-17
      3202.00  4.14826e-17
      3204.00  6.40690e-17
      3206.00  4.08607e-17
      3208.00 -1.70609e-18
      3210.00  1.45994e-18
      3212.00 -4.76498e-17
      3214.00  1.70054e-17
      3216.00  5.80489e-17
      3218.00  5.62288e-17
      3220.00  3.52125e-17
      3222.00  2.40457e-17
      3224.00  7.39617e-17
      3226.00  7.41785e-17
      3228.00  1.92329e-17
      3230.00  5.12661e-17
      3232.00  3.85177e-17
      3234.00 -1.71135e-17
      3236.00 -5.83171e-18
      3238.00  2.49851e-17
      3240.00  8.05559e-17
      3242.00 -1.50962e-17
      3244.00  2.28465e-17
      3246.00  9.61550e-17
      3248.00  3.48024e-17
      3250.00  2.51480e-17
      3252.00  5.70307e-17
      3254.00  1.48253e-17
      3256.00  1.25639e-17
      3258.00  5.78297e-17
      3260.00  4.47341e-17
      3262.00  5.03300e-18
      3264.00  4.71743e-17
      3266.00  1.20810e-17
      3268.00  2.94210e-17
      3270.00  5.52447e-17
      3272.00  6.36717e-17
      3274.00  9.16413e-18
      3276.00  1.79088e-17
      3278.00  5.36117e-17
      3280.00  3.91570e-17
      3282.00  3.03983e-17
      3284.00  4.15438e-17
      3286.00  2.27535e-17
      3288.00  6.04701e-17
      3290.00  4.97100e-17
      3292.00  4.54624e-17
      3294.00  5.90013e-17
      3296.00  8.37754e-17
      3298.00  5.58546e-17
      3300.00  5.00531e-17
      3302.00  6.27404e-17
      3304.00 -2.06575e-17
      3306.00  6.14370e-17
      3308.00  1.83431e-17
      3310.00  3.72486e-17
      3312.00  5.29442e-17
      3314.00  1.55949e-17
      3316.00  6.36483e-17
      3318.00  3.22612e-17
      3320.00 -3.63829e-18
      3322.00  3.92221e-17
      3324.00  6.74236e-18
      3326.00  5.83190e-17
      3328.00  3.67373e-17
      3330.00  2.92156e-17
      3332.00  1.91738e-18
      3334.00  5.24979e-17
      3336.00  3.63937e-17
      3338.00  3.30448e-17
      3340.00  2.35347e-17
      3342.00  3.96983e-17
      3344.00  3.48780e-17
      3346.00  3.89103e-17
      3348.00  6.14537e-17
      3350.00  2.18647e-17
      3352.00  4.87188e-17
      3354.00  3.30440e-18
      3356.00  3.00151e-17
      3358.00  4.78102e-17
      3360.00  2.31793e-17
      3362.00  2.41882e-17
      3364.00  2.19770e-17
      3366.00  1.77867e-17
      3368.00  4.98587e-17
      3370.00  5.04250e-17
      3372.00  1.23665e-17
      3374.00  3.37387e-18
      3376.00  5.27731e-17
      3378.00  1.41857e-17
      3380.00  6.46870e-17
      3382.00  5.90349e-17
      3384.00  4.34826e-17
      3386.00  4.94646e-17
      3388.00  2.28449e-17
      3390.00  1.88835e-17
      3392.00  4.79089e-17
      3394.00  1.35291e-17
      3396.00  9.78519e-18
      3398.00  3.48354e-17
      3400.00  4.89872e-17
      3402.00  4.90113e-17
      3404.00  5.27105e-17
      3406.00  4.83750e-17
      3408.00  5.00483e-17
      3410.00  3.67795e-17
      3412.00  6.15332e-17
      3414.00  3.75232e-17
      3416.00  3.81681e-17
      3418.00  2.92059e-17
      3420.00  4.00071e-17
      3422.00  4.07573e-17
      3424.00  1.20193e-17
      3426.00  3.23658e-17
      3428.00  2.56350e-17
      3430.00  2.69367e-17
      3432.00  2.67883e-17
      3434.00  4.43536e-17
      3436.00  3.33126e-17
      3438.00  6.40398e-17
      3440.00  3.67421e-17
      3442.00  4.05936e-17
      3444.00  3.98360e-17
      3446.00  2.81717e-17
      3448.00  4.07794e-17
      3450.00  3.22627e-17
      3452.00  4.94884e-17
      3454.00  6.01106e-17
      3456.00  5.19166e-17
      3458.00  4.22344e-17
      3460.00  3.72851e-17
      3462.00  1.88911e-17
      3464.00  4.44256e-17
      3466.00  2.96968e-17
      3468.00  1.60580e-17
      3470.00  2.60180e-17
      3472.00  3.16653e-17
      3474.00  3.73211e-17
      3476.00  2.92848e-17
      3478.00  7.37680e-17
      3480.00  2.17510e-17
      3482.00  5.57545e-17
      3484.00  5.15298e-17
      3486.00  3.47352e-17
      3488.00  4.35135e-17
      3490.00  2.98795e-17
      3492.00  1.48018e-17
      3494.00  2.05373e-17
      3496.00  4.63458e-17
      3498.00  2.94814e-17
      3500.00  4.37157e-17
      3502.00  3.38588e-17
      3504.00  1.82364e-17
      3506.00  3.36329e-17
      3508.00  1.58234e-17
      3510.00  4.40360e-17
      3512.00  3.51577e-17
      3514.00  2.25991e-17
      3516.00  2.36666e-17
      3518.00  4.23952e-17
      3520.00  3.44019e-17
      3522.00  2.87248e-17
      3524.00  4.42368e-17
      3526.00  4.86754e-17
      3528.00  4.44791e-17
      3530.00  3.40442e-17
      3532.00  4.42318e-17
      3534.00  2.56162e-17
      3536.00  3.44042e-17
      3538.00  3.85593e-17
      3540.00  1.93364e-17
      3542.00  3.83280e-17
      3544.00  4.25212e-17
      3546.00  2.99276e-17
      3548.00  2.57501e-17
      3550.00  4.82146e-17
      3552.00  5.78965e-17
      3554.00  6.15762e-17
      3556.00  5.47068e-17
      3558.00  4.47484e-17
      3560.00  3.65378e-17
      3562.00  4.87324e-17
      3564.00  1.91512e-17
      3566.00  3.68624e-17
      3568.00  4.04068e-17
      3570.00  4.91273e-17
      3572.00  4.27267e-17
      3574.00  3.03941e-17
      3576.00  3.17980e-17
      3578.00  4.12012e-17
      3580.00  2.66142e-17
      3582.00  4.35618e-17
      3584.00  5.03936e-17
      3586.00  4.66857e-17
      3588.00  4.68555e-17
      3590.00  3.94708e-17
      3592.00  4.51014e-17
      3594.00  2.79896e-17
      3596.00  3.89208e-17
      3598.00  4.02822e-17
      3600.00  4.86145e-17
      3602.00  3.67137e-17
      3604.00  4.34109e-17
      3606.00  3.31012e-17
      3608.00  2.70590e-17
      3610.00  3.43058e-17
      3612.00  3.19781e-17
      3614.00  2.99332e-17
      3616.00  3.61039e-17
      3618.00  4.98458e-17
      3620.00  5.09584e-17
      3622.00  3.69737e-17
      3624.00  4.05320e-17
      3626.00  5.33458e-17
      3628.00  5.10757e-17
      3630.00  3.17807e-17
      3632.00  3.92455e-17
      3634.00  3.67874e-17
      3636.00  3.89684e-17
      3638.00  3.48113e-17
      3640.00  3.06519e-17
      3642.00  3.87932e-17
      3644.00  3.66849e-17
      3646.00  3.03338e-17
      3648.00  3.48666e-17
      3650.00  2.82254e-17
      3652.00  3.99985e-17
      3654.00  4.71565e-17
      3656.00  3.51228e-17
      3658.00  3.81703e-17
      3660.00  3.82833e-17
      3662.00  4.78152e-17
      3664.00  4.18009e-17
      3666.00  2.44234e-17
      3668.00  4.81417e-17
      3670.00  3.81143e-17
      3672.00  3.44437e-17
      3674.00  4.16650e-17
      3676.00  3.81718e-17
      3678.00  3.63550e-17
      3680.00  3.21994e-17
      3682.00  4.20540e-17
      3684.00  3.92174e-17
      3686.00  3.28330e-17
      3688.00  5.29737e-17
      3690.00  2.88422e-17
      3692.00  3.33642e-17
      3694.00  4.32273e-17
      3696.00  2.75498e-17
      3698.00  1.38534e-17
      3700.00  3.51653e-17
      3702.00  5.18648e-17
      3704.00  5.40393e-17
      3706.00  4.13076e-17
      3708.00  3.68737e-17
      3710.00  4.27388e-17
      3712.00  4.68189e-17
      3714.00  5.39726e-17
      3716.00  5.81891e-17
      3718.00  3.47227e-17
      3720.00  2.99605e-17
      3722.00  3.87436e-17
      3724.00  3.38553e-17
      3726.00  2.65744e-17
      3728.00  2.92189e-17
      3730.00  4.16797e-17
      3732.00  3.52820e-17
      3734.00  2.75850e-17
      3736.00  3.87194e-17
      3738.00  5.26290e-17
      3740.00  4.25279e-17
      3742.00  4.67458e-17
      3744.00  5.12084e-17
      3746.00  3.91039e-17
      3748.00  3.44430e-17
      3750.00  3.95261e-17
      3752.00  3.76807e-17
      3754.00  3.29424e-17
      3756.00  3.99315e-17
      3758.00  4.49254e-17
      3760.00  3.72525e-17
      3762.00  3.86949e-17
      3764.00  3.77844e-17
      3766.00  4.29866e-17
      3768.00  4.91844e-17
      3770.00  4.32228e-17
      3772.00  4.66154e-17
      3774.00  4.49573e-17
      3776.00  3.42152e-17
      3778.00  4.30713e-17
      3780.00  4.24517e-17
      3782.00  4.76482e-17
      3784.00  3.93609e-17
      3786.00  3.08608e-17
      3788.00  3.93030e-17
      3790.00  2.90071e-17
      3792.00  2.77600e-17
      3794.00  3.66546e-17
      3796.00  4.21932e-17
      3798.00  3.70708e-17
      3800.00  3.16951e-17
      3802.00  3.95347e-17
      3804.00  3.59891e-17
      3806.00  2.73161e-17
      3808.00  3.20871e-17
      3810.00  3.16883e-17
      3812.00  4.56729e-17
      3814.00  3.18025e-17
      3816.00  3.70982e-17
      3818.00  4.25964e-17
      3820.00  3.95133e-17
      3822.00  4.01853e-17
      3824.00  3.62859e-17
      3826.00  4.08300e-17
      3828.00  4.60961e-17
      3830.00  4.76582e-17
      3832.00  5.00569e-17
      3834.00  5.14928e-17
      3836.00  4.82091e-17
      3838.00  3.85929e-17
      3840.00  3.68542e-17
      3842.00  4.01388e-17
      3844.00  4.34631e-17
      3846.00  4.89497e-17
      3848.00  4.96286e-17
      3850.00  4.28078e-17
      3852.00  3.71692e-17
      3854.00  4.86156e-17
      3856.00  4.38421e-17
      3858.00  4.29193e-17
      3860.00  4.84107e-17
      3862.00  5.06154e-17
      3864.00  5.29085e-17
      3866.00  4.33661e-17
      3868.00  5.38174e-17
      3870.00  3.39922e-17
      3872.00  3.72340e-17
      3874.00  4.20408e-17
      3876.00  4.47939e-17
      3878.00  4.38419e-17
      3880.00  4.29538e-17
      3882.00  4.65155e-17
      3884.00  4.33114e-17
      3886.00  4.26941e-17
      3888.00  5.26507e-17
      3890.00  5.04261e-17
      3892.00  4.24338e-17
      3894.00  4.33908e-17
      3896.00  5.02563e-17
      3898.00  3.78723e-17
      3900.00  4.45402e-17
      3902.00  4.35132e-17
      3904.00  4.02119e-17
      3906.00  4.56066e-17
      3908.00  4.78045e-17
      3910.00  4.72684e-17
      3912.00  6.09978e-17
      3914.00  4.55244e-17
      3916.00  3.13836e-17
      3918.00  4.19776e-17
      3920.00  4.32434e-17
      3922.00  4.24029e-17
      3924.00  4.19445e-17
      3926.00  4.92728e-17
      3928.00  4.60140e-17
      3930.00  4.74896e-17
      3932.00  3.90657e-17
      3934.00  2.86617e-17
      3936.00  4.47170e-17
      3938.00  6.35252e-17
      3940.00  1.02883e-16
      3942.00  1.11987e-16
      3944.00  7.87096e-17
      3946.00  4.98784e-17
      3948.00  3.34463e-17
      3950.00  3.64146e-17
      3952.00  4.02676e-17
      3954.00  4.03139e-17
      3956.00  5.35061e-17
      3958.00  3.45829e-17
      3960.00  3.77305e-17
      3962.00  3.49624e-17
      3964.00  3.16800e-17
      3966.00  3.02990e-17
      3968.00  3.40025e-17
      3970.00  4.23721e-17
      3972.00  4.76071e-17
      3974.00  4.35414e-17
      3976.00  4.90888e-17
      3978.00  5.14843e-17
      3980.00  5.21174e-17
      3982.00  4.65999e-17
      3984.00  4.26249e-17
      3986.00  3.70517e-17
      3988.00  3.66197e-17
      3990.00  3.49690e-17
      3992.00  3.54451e-17
      3994.00  4.23104e-17
      3996.00  4.88498e-17
      3998.00  5.96134e-17
      4000.00  5.76490e-17
      4002.00  5.08182e-17
      4004.00  3.91401e-17
      4006.00  5.05399e-17
      4008.00  4.99292e-17
      4010.00  5.18439e-17
      4012.00  4.31063e-17
      4014.00  4.59091e-17
      4016.00  3.96651e-17
      4018.00  4.32594e-17
      4020.00  4.35138e-17
      4022.00  6.05067e-17
      4024.00  5.75726e-17
      4026.00  5.33306e-17
      4028.00  5.70137e-17
      4030.00  5.75776e-17
      4032.00  5.43735e-17
      4034.00  4.99954e-17
      4036.00  4.83642e-17
      4038.00  6.25273e-17
      4040.00  4.65312e-17
      4042.00  4.82521e-17
      4044.00  3.29012e-17
      4046.00  5.10630e-17
      4048.00  5.08419e-17
      4050.00  4.70018e-17
      4052.00  4.68933e-17
      4054.00  3.83917e-17
      4056.00  3.32225e-17
      4058.00  4.30877e-17
      4060.00  4.34896e-17
      4062.00  5.29032e-17
      4064.00  5.60411e-17
      4066.00  5.47432e-17
      4068.00  5.88190e-17
      4070.00  5.82745e-17
      4072.00  5.40925e-17
      4074.00  6.45154e-17
      4076.00  5.37122e-17
      4078.00  6.49808e-17
      4080.00  6.31539e-17
      4082.00  6.37852e-17
      4084.00  6.05548e-17
      4086.00  6.41650e-17
      4088.00  7.70264e-17
      4090.00  6.97589e-17
      4092.00  6.12599e-17
      4094.00  5.28331e-17
      4096.00  5.54514e-17
      4098.00  5.88626e-17
      4100.00  5.18372e-17
      4102.00  5.22916e-17
      4104.00  6.30045e-17
      4106.00  5.29013e-17
      4108.00  3.91511e-17
      4110.00  5.60606e-17
      4112.00  6.25630e-17
      4114.00  5.99321e-17
      4116.00  5.95492e-17
      4118.00  5.62560e-17
      4120.00  5.91839e-17
      4122.00  6.30647e-17
      4124.00  6.35231e-17
      4126.00  6.41786e-17
      4128.00  5.98154e-17
      4130.00  7.30436e-17
      4132.00  6.49956e-17
      4134.00  6.51536e-17
      4136.00  7.44806e-17
      4138.00  7.19879e-17
      4140.00  6.10731e-17
      4142.00  7.34351e-17
      4144.00  6.67587e-17
      4146.00  7.32118e-17
      4148.00  6.19673e-17
      4150.00  6.55214e-17
      4152.00  7.02880e-17
      4154.00  6.43369e-17
      4156.00  5.43830e-17
      4158.00  3.71014e-17
      4160.00  4.27269e-17
      4162.00  5.41547e-17
      4164.00  7.06592e-17
      4166.00  6.76032e-17
      4168.00  6.42469e-17
      4170.00  6.11627e-17
      4172.00  7.25215e-17
      4174.00  7.20491e-17
      4176.00  6.25063e-17
      4178.00  6.68743e-17
      4180.00  6.82338e-17
      4182.00  7.03734e-17
      4184.00  6.69191e-17
      4186.00  6.32760e-17
      4188.00  6.77134e-17
      4190.00  5.81795e-17
      4192.00  4.98462e-17
      4194.00  4.57571e-17
      4196.00  4.73130e-17
      4198.00  5.93426e-17
      4200.00  5.62459e-17
      4202.00  5.16846e-17
      4204.00  4.88993e-17
      4206.00  6.93589e-17
      4208.00  6.34425e-17
      4210.00  6.55446e-17
      4212.00  6.81740e-17
      4214.00  7.03779e-17
      4216.00  7.34235e-17
      4218.00  7.40662e-17
      4220.00  7.22597e-17
      4222.00  7.49378e-17
      4224.00  6.41375e-17
      4226.00  6.67525e-17
      4228.00  6.79160e-17
      4230.00  7.05692e-17
      4232.00  6.60863e-17
      4234.00  6.90444e-17
      4236.00  6.19644e-17
      4238.00  6.11645e-17
      4240.00  6.70955e-17
      4242.00  7.27584e-17
      4244.00  6.57629e-17
      4246.00  7.08074e-17
      4248.00  6.54253e-17
      4250.00  5.97985e-17
      4252.00  6.86340e-17
      4254.00  7.47728e-17
      4256.00  6.55864e-17
      4258.00  6.29714e-17
      4260.00  6.06870e-17
      4262.00  6.79586e-17
      4264.00  6.85163e-17
      4266.00  6.89171e-17
      4268.00  6.40747e-17
      4270.00  7.73635e-17
      4272.00  7.83072e-17
      4274.00  5.89347e-17
      4276.00  5.98633e-17
      4278.00  7.02233e-17
      4280.00  7.19725e-17
      4282.00  7.13989e-17
      4284.00  7.50687e-17
      4286.00  6.12910e-17
      4288.00  5.97251e-17
      4290.00  6.23443e-17
      4292.00  6.85240e-17
      4294.00  7.36550e-17
      4296.00  7.14370e-17
      4298.00  6.37930e-17
      4300.00  6.73187e-17
      4302.00  6.86644e-17
      4304.00  5.79499e-17
      4306.00  6.87486e-17
      4308.00  6.89905e-17
      4310.00  7.28242e-17
      4312.00  6.81506e-17
      4314.00  6.11155e-17
      4316.00  6.93457e-17
      4318.00  6.96152e-17
      4320.00  7.30609e-17
      4322.00  6.64952e-17
      4324.00  6.21010e-17
      4326.00  6.34333e-17
      4328.00  6.58975e-17
      4330.00  6.29071e-17
      4332.00  5.24686e-17
      4334.00  5.47037e-17
      4336.00  6.34950e-17
      4338.00  6.02179e-17
      4340.00  5.52223e-17
      4342.00  5.58653e-17
      4344.00  5.57365e-17
      4346.00  6.47910e-17
      4348.00  6.77030e-17
      4350.00  6.71966e-17
      4352.00  5.91824e-17
      4354.00  7.71571e-17
      4356.00  6.69878e-17
      4358.00  7.32484e-17
      4360.00  6.85301e-17
      4362.00  5.54881e-17
      4364.00  6.10607e-17
      4366.00  6.34949e-17
      4368.00  7.77572e-17
      4370.00  6.13662e-17
      4372.00  6.53142e-17
      4374.00  6.43882e-17
      4376.00  5.89631e-17
      4378.00  6.59802e-17
      4380.00  6.70372e-17
      4382.00  6.66837e-17
      4384.00  7.74098e-17
      4386.00  8.01961e-17
      4388.00  6.65167e-17
      4390.00  6.93013e-17
      4392.00  7.11063e-17
      4394.00  7.12699e-17
      4396.00  6.98409e-17
      4398.00  6.96994e-17
      4400.00  7.30925e-17
      4402.00  6.84658e-17
      4404.00  6.82768e-17
      4406.00  7.05479e-17
      4408.00  5.96566e-17
      4410.00  6.60054e-17
      4412.00  5.56321e-17
      4414.00  5.94163e-17
      4416.00  7.13519e-17
      4418.00  7.51734e-17
      4420.00  8.22227e-17
      4422.00  7.27014e-17
      4424.00  6.92795e-17
      4426.00  7.34585e-17
      4428.00  6.51317e-17
      4430.00  7.44790e-17
      4432.00  7.42134e-17
      4434.00  8.25139e-17
      4436.00  7.52551e-17
      4438.00  7.01388e-17
      4440.00  6.21334e-17
      4442.00  7.51034e-17
      4444.00  6.08485e-17
      4446.00  7.01026e-17
      4448.00  6.54252e-17
      4450.00  7.30246e-17
      4452.00  7.86245e-17
      4454.00  7.57828e-17
      4456.00  6.61648e-17
      4458.00  6.76422e-17
      4460.00  7.87603e-17
      4462.00  7.09778e-17
      4464.00  6.15810e-17
      4466.00  6.89356e-17
      4468.00  6.54550e-17
      4470.00  7.00593e-17
      4472.00  8.56050e-17
      4474.00  7.99815e-17
      4476.00  7.86703e-17
      4478.00  7.09244e-17
      4480.00  6.62804e-17
      4482.00  7.64003e-17
      4484.00  7.40171e-17
      4486.00  6.94842e-17
      4488.00  7.09557e-17
      4490.00  6.48172e-17
      4492.00  6.68296e-17
      4494.00  7.16341e-17
      4496.00  7.09390e-17
      4498.00  6.69376e-17
      4500.00  6.93048e-17
      4502.00  6.72214e-17
      4504.00  7.94001e-17
      4506.00  7.05198e-17
      4508.00  6.90125e-17
      4510.00  8.11400e-17
      4512.00  7.22970e-17
      4514.00  7.00715e-17
      4516.00  7.01221e-17
      4518.00  6.64743e-17
      4520.00  7.07849e-17
      4522.00  7.69733e-17
      4524.00  7.72388e-17
      4526.00  8.00295e-17
      4528.00  7.15635e-17
      4530.00  6.92789e-17
      4532.00  6.33376e-17
      4534.00  7.30416e-17
      4536.00  7.28427e-17
      4538.00  8.06197e-17
      4540.00  7.18622e-17
      4542.00  6.68445e-17
      4544.00  6.83962e-17
      4546.00  7.28669e-17
      4548.00  6.63098e-17
      4550.00  6.49772e-17
      4552.00  6.68566e-17
      4554.00  6.43368e-17
      4556.00  5.79965e-17
      4558.00  6.97513e-17
      4560.00  7.01441e-17
      4562.00  7.56433e-17
      4564.00  7.53687e-17
      4566.00  7.72291e-17
      4568.00  6.80855e-17
      4570.00  6.84240e-17
      4572.00  6.48322e-17
      4574.00  7.26391e-17
      4576.00  7.57863e-17
      4578.00  7.02103e-17
      4580.00  6.69464e-17
      4582.00  6.74873e-17
      4584.00  6.20132e-17
      4586.00  7.05170e-17
      4588.00  8.64261e-17
      4590.00  8.25337e-17
      4592.00  6.64186e-17
      4594.00  6.19072e-17
      4596.00  6.41900e-17
      4598.00  6.33375e-17
      4600.00  6.19372e-17
      4602.00  6.67654e-17
      4604.00  6.89559e-17
      4606.00  6.23830e-17
      4608.00  6.07413e-17
      4610.00  6.27048e-17
      4612.00  7.53570e-17
      4614.00  7.60695e-17
      4616.00  7.45975e-17
      4618.00  7.65740e-17
      4620.00  6.53661e-17
      4622.00  7.60656e-17
      4624.00  7.21507e-17
      4626.00  6.53726e-17
      4628.00  7.40088e-17
      4630.00  6.26883e-17
      4632.00  5.82621e-17
      4634.00  6.58535e-17
      4636.00  6.78838e-17
      4638.00  6.23246e-17
      4640.00  7.13458e-17
      4642.00  7.24520e-17
      4644.00  7.54904e-17
      4646.00  6.97469e-17
      4648.00  7.34715e-17
      4650.00  7.26418e-17
      4652.00  7.31112e-17
      4654.00  7.12525e-17
      4656.00  7.28682e-17
      4658.00  7.07566e-17
      4660.00  7.35673e-17
      4662.00  6.56012e-17
      4664.00  7.95947e-17
      4666.00  6.88954e-17
      4668.00  7.13570e-17
      4670.00  7.76219e-17
      4672.00  7.47632e-17
      4674.00  8.14776e-17
      4676.00  7.45682e-17
      4678.00  6.94732e-17
      4680.00  7.01412e-17
      4682.00  7.38148e-17
      4684.00  6.97663e-17
      4686.00  6.96435e-17
      4688.00  7.38214e-17
      4690.00  7.60317e-17
      4692.00  7.70842e-17
      4694.00  7.02551e-17
      4696.00  6.74093e-17
      4698.00  6.81554e-17
      4700.00  7.56639e-17
      4702.00  7.89671e-17
      4704.00  7.68360e-17
      4706.00  7.64067e-17
      4708.00  8.17229e-17
      4710.00  7.09921e-17
      4712.00  6.79387e-17
      4714.00  7.14971e-17
      4716.00  6.91870e-17
      4718.00  7.46245e-17
      4720.00  7.34921e-17
      4722.00  8.13600e-17
      4724.00  6.95326e-17
      4726.00  7.66833e-17
      4728.00  7.24726e-17
      4730.00  7.85687e-17
      4732.00  8.30419e-17
      4734.00  8.90985e-17
      4736.00  7.24503e-17
      4738.00  8.87871e-17
      4740.00  6.67737e-17
      4742.00  8.28981e-17
      4744.00  8.88262e-17
      4746.00  7.61548e-17
      4748.00  7.52902e-17
      4750.00  7.83776e-17
      4752.00  8.27224e-17
      4754.00  7.86658e-17
      4756.00  8.29060e-17
      4758.00  9.39726e-17
      4760.00  9.29985e-17
      4762.00  1.01861e-16
      4764.00  9.16021e-17
      4766.00  8.77861e-17
      4768.00  8.19176e-17
      4770.00  8.54915e-17
      4772.00  8.21200e-17
      4774.00  8.37215e-17
      4776.00  9.19247e-17
      4778.00  9.33720e-17
      4780.00  8.73030e-17
      4782.00  9.98758e-17
      4784.00  8.58043e-17
      4786.00  8.73899e-17
      4788.00  8.65920e-17
      4790.00  8.92525e-17
      4792.00  8.43317e-17
      4794.00  8.08360e-17
      4796.00  9.05998e-17
      4798.00  8.85947e-17
      4800.00  9.31799e-17
      4802.00  9.06794e-17
      4804.00  8.97418e-17
      4806.00  8.37105e-17
      4808.00  8.05738e-17
      4810.00  9.57978e-17
      4812.00  9.57795e-17
      4814.00  8.83212e-17
      4816.00  9.57718e-17
      4818.00  9.30811e-17
      4820.00  1.01471e-16
      4822.00  1.01123e-16
      4824.00  8.86535e-17
      4826.00  8.85445e-17
      4828.00  8.68642e-17
      4830.00  9.33234e-17
      4832.00  9.91288e-17
      4834.00  1.02190e-16
      4836.00  9.84237e-17
      4838.00  9.94973e-17
      4840.00  1.02712e-16
      4842.00  9.28405e-17
      4844.00  9.98387e-17
      4846.00  1.08375e-16
      4848.00  1.01134e-16
      4850.00  1.03495e-16
      4852.00  1.06000e-16
      4854.00  9.70087e-17
      4856.00  1.08607e-16
      4858.00  1.08187e-16
      4860.00  9.92374e-17
      4862.00  9.93847e-17
      4864.00  1.05681e-16
      4866.00  9.57449e-17
      4868.00  1.05366e-16
      4870.00  1.00710e-16
      4872.00  1.03213e-16
      4874.00  1.01592e-16
      4876.00  1.05605e-16
      4878.00  9.53941e-17
      4880.00  1.06518e-16
      4882.00  1.06743e-16
      4884.00  9.68552e-17
      4886.00  9.22451e-17
      4888.00  1.05195e-16
      4890.00  9.45975e-17
      4892.00  9.65678e-17
      4894.00  9.40633e-17
      4896.00  9.30435e-17
      4898.00  9.27432e-17
      4900.00  8.26494e-17
      4902.00  8.37175e-17
      4904.00  9.53755e-17
      4906.00  9.17587e-17
      4908.00  9.77875e-17
      4910.00  8.88140e-17
      4912.00  9.37532e-17
      4914.00  8.06500e-17
      4916.00  7.94958e-17
      4918.00  9.05315e-17
      4920.00  9.37628e-17
      4922.00  9.54704e-17
      4924.00  9.60483e-17
      4926.00  9.71417e-17
      4928.00  8.45055e-17
      4930.00  8.91939e-17
      4932.00  9.38746e-17
      4934.00  8.20636e-17
      4936.00  7.94217e-17
      4938.00  8.91521e-17
      4940.00  7.84856e-17
      4942.00  7.99093e-17
      4944.00  8.13407e-17
      4946.00  8.63639e-17
      4948.00  8.22649e-17
      4950.00  8.95541e-17
      4952.00  8.12832e-17
      4954.00  8.71452e-17
      4956.00  8.13582e-17
      4958.00  7.42452e-17
      4960.00  7.28802e-17
      4962.00  8.20448e-17
      4964.00  8.45684e-17
      4966.00  7.88584e-17
      4968.00  7.71157e-17
      4970.00  7.60138e-17
      4972.00  7.91989e-17
      4974.00  7.83108e-17
      4976.00  8.14728e-17
      4978.00  8.00488e-17
      4980.00  8.30796e-17
      4982.00  7.91291e-17
      4984.00  8.36844e-17
      4986.00  8.38503e-17
      4988.00  7.85496e-17
      4990.00  8.50139e-17
      4992.00  8.00200e-17
      4994.00  7.96957e-17
      4996.00  7.43317e-17
      4998.00  7.86823e-17
      5000.00  7.62072e-17
      5002.00  6.42047e-17
      5004.00  7.85779e-17
      5006.00  7.94456e-17
      5008.00  7.93997e-17
      5010.00  6.94397e-17
      5012.00  7.88770e-17
      5014.00  7.54572e-17
      5016.00  7.08991e-17
      5018.00  8.41864e-17
      5020.00  7.04783e-17
      5022.00  8.00139e-17
      5024.00  9.43506e-17
      5026.00  8.62448e-17
      5028.00  8.86292e-17
      5030.00  7.29230e-17
      5032.00  8.02749e-17
      5034.00  9.64410e-17
      5036.00  8.23207e-17
      5038.00  7.81012e-17
      5040.00  7.68972e-17
      5042.00  7.74256e-17
      5044.00  8.63690e-17
      5046.00  8.21589e-17
      5048.00  8.10061e-17
      5050.00  8.43277e-17
      5052.00  8.30613e-17
      5054.00  7.88984e-17
      5056.00  7.98315e-17
      5058.00  8.40672e-17
      5060.00  8.45668e-17
      5062.00  8.15690e-17
      5064.00  7.07549e-17
      5066.00  7.96647e-17
      5068.00  8.21241e-17
      5070.00  7.50028e-17
      5072.00  8.28830e-17
      5074.00  8.93132e-17
      5076.00  7.98231e-17
      5078.00  8.76343e-17
      5080.00  7.58436e-17
      5082.00  8.02796e-17
      5084.00  7.57476e-17
      5086.00  9.09611e-17
      5088.00  8.16859e-17
      5090.00  8.95249e-17
      5092.00  8.64618e-17
      5094.00  8.48334e-17
      5096.00  8.22748e-17
      5098.00  8.20878e-17
      5100.00  7.88776e-17
      5102.00  7.92785e-17
      5104.00  8.27752e-17
      5106.00  8.15413e-17
      5108.00  7.86143e-17
      5110.00  8.82523e-17
      5112.00  8.37981e-17
      5114.00  7.39466e-17
      5116.00  8.13801e-17
      5118.00  7.54199e-17
      5120.00  7.14831e-17
      5122.00  8.14494e-17
      5124.00  8.30040e-17
      5126.00  8.39696e-17
      5128.00  8.58324e-17
      5130.00  7.51324e-17
      5132.00  7.82458e-17
      5134.00  7.91679e-17
      5136.00  9.10605e-17
      5138.00  1.34980e-16
      5140.00  1.38160e-16
      5142.00  1.06386e-16
      5144.00  7.87287e-17
      5146.00  7.42326e-17
      5148.00  7.79383e-17
      5150.00  6.83439e-17
      5152.00  8.46155e-17
      5154.00  8.48898e-17
      5156.00  9.26249e-17
      5158.00  8.97633e-17
      5160.00  9.18105e-17
      5162.00  8.38078e-17
      5164.00  7.79208e-17
      5166.00  8.34229e-17
      5168.00  7.63148e-17
      5170.00  7.51362e-17
      5172.00  8.40137e-17
      5174.00  8.99301e-17
      5176.00  9.34094e-17
      5178.00  9.03444e-17
      5180.00  9.68947e-17
      5182.00  9.30761e-17
      5184.00  9.10275e-17
      5186.00  1.01514e-16
      5188.00  8.59032e-17
      5190.00  9.95000e-17
      5192.00  8.90888e-17
      5194.00  9.08460e-17
      5196.00  9.18522e-17
      5198.00  9.42907e-17
      5200.00  8.53747e-17
      5202.00  9.10262e-17
      5204.00  8.42318e-17
      5206.00  8.93051e-17
      5208.00  8.90802e-17
      5210.00  8.64190e-17
      5212.00  8.74103e-17
      5214.00  8.79733e-17
      5216.00  9.63705e-17
      5218.00  8.22944e-17
      5220.00  7.99338e-17
      5222.00  8.46789e-17
      5224.00  8.95403e-17
      5226.00  9.66973e-17
      5228.00  8.03216e-17
      5230.00  8.56410e-17
      5232.00  9.15428e-17
      5234.00  8.94689e-17
      5236.00  9.39612e-17
      5238.00  8.98022e-17
      5240.00  8.30946e-17
      5242.00  8.23065e-17
      5244.00  9.46808e-17
      5246.00  8.93415e-17
      5248.00  8.14728e-17
      5250.00  8.92260e-17
      5252.00  8.46097e-17
      5254.00  7.99546e-17
      5256.00  8.86747e-17
      5258.00  8.83069e-17
      5260.00  8.23983e-17
      5262.00  8.10051e-17
      5264.00  8.02377e-17
      5266.00  7.33301e-17
      5268.00  8.21616e-17
      5270.00  8.20527e-17
      5272.00  8.11023e-17
      5274.00  9.54129e-17
      5276.00  9.46104e-17
      5278.00  7.50543e-17
      5280.00  6.95270e-17
      5282.00  8.48583e-17
      5284.00  8.01825e-17
      5286.00  8.89495e-17
      5288.00  7.53565e-17
      5290.00  8.72910e-17
      5292.00  9.85007e-17
      5294.00  9.52806e-17
      5296.00  9.13604e-17
      5298.00  7.75154e-17
      5300.00  8.37962e-17
      5302.00  7.41828e-17
      5304.00  7.06471e-17
      5306.00  7.92178e-17
      5308.00  8.60104e-17
      5310.00  8.79395e-17
      5312.00  9.31992e-17
      5314.00  8.70411e-17
      5316.00  7.87712e-17
      5318.00  8.54499e-17
      5320.00  8.46528e-17
      5322.00  9.10596e-17
      5324.00  8.33007e-17
      5326.00  8.07601e-17
      5328.00  7.75095e-17
      5330.00  7.97542e-17
      5332.00  8.67972e-17
      5334.00  9.45127e-17
      5336.00  8.68659e-17
      5338.00  9.19698e-17
      5340.00  8.51198e-17
      5342.00  7.86580e-17
      5344.00  8.93159e-17
      5346.00  8.85633e-17
      5348.00  9.67081e-17
      5350.00  8.57609e-17
      5352.00  9.22515e-17
      5354.00  8.43443e-17
      5356.00  8.37386e-17
      5358.00  8.32328e-17
      5360.00  8.31876e-17
      5362.00  8.22346e-17
      5364.00  7.77579e-17
      5366.00  9.12242e-17
      5368.00  8.01542e-17
      5370.00  8.07712e-17
      5372.00  8.01107e-17
      5374.00  7.82521e-17
      5376.00  8.13947e-17
      5378.00  7.76138e-17
      5380.00  8.84831e-17
      5382.00  8.19231e-17
      5384.00  8.46940e-17
      5386.00  8.21156e-17
      5388.00  8.02247e-17
      5390.00  8.25516e-17
      5392.00  7.95055e-17
      5394.00  8.16408e-17
      5396.00  8.42982e-17
      5398.00  8.35291e-17
      5400.00  8.25734e-17
      5402.00  8.13758e-17
      5404.00  8.08343e-17
      5406.00  8.01804e-17
      5408.00  8.06424e-17
      5410.00  8.26993e-17
      5412.00  8.42924e-17
      5414.00  8.43662e-17
      5416.00  8.33940e-17
      5418.00  8.24158e-17
      5420.00  7.99104e-17
      5422.00  7.89750e-17
      5424.00  8.05676e-17
      5426.00  8.39152e-17
      5428.00  8.51134e-17
      5430.00  8.47998e-17
      5432.00  8.52864e-17
      5434.00  8.68003e-17
      5436.00  8.85141e-17
      5438.00  8.87367e-17
      5440.00  8.83109e-17
      5442.00  8.67708e-17
      5444.00  8.30729e-17
      5446.00  7.95496e-17
      5448.00  7.88033e-17
      5450.00  8.09670e-17
      5452.00  8.10123e-17
      5454.00  8.04870e-17
      5456.00  7.95317e-17
      5458.00  7.81932e-17
      5460.00  7.64015e-17
      5462.00  7.43939e-17
      5464.00  6.94540e-17
      5466.00  6.86102e-17
      5468.00  7.41825e-17
      5470.00  8.42278e-17
      5472.00  8.85180e-17
      5474.00  9.15832e-17
      5476.00  9.12681e-17
      5478.00  8.56170e-17
      5480.00  7.80267e-17
      5482.00  7.66495e-17
      5484.00  8.05843e-17
      5486.00  8.22027e-17
      5488.00  8.35329e-17
      5490.00  8.44961e-17
      5492.00  8.47634e-17
      5494.00  8.37852e-17
      5496.00  8.41981e-17
      5498.00  8.52085e-17
      5500.00  8.66922e-17
      5502.00  8.90799e-17
      5504.00  9.31360e-17
      5506.00  9.24838e-17
      5508.00  8.66866e-17
      5510.00  8.27767e-17
      5512.00  8.13625e-17
      5514.00  8.13974e-17
      5516.00  8.34633e-17
      5518.00  8.99242e-17
      5520.00  9.32688e-17
      5522.00  9.34675e-17
      5524.00  9.24041e-17
      5526.00  9.31910e-17
      5528.00  9.56692e-17
      5530.00  9.63116e-17
      5532.00  9.59288e-17
      5534.00  9.47847e-17
      5536.00  9.28940e-17
      5538.00  8.83174e-17
      5540.00  8.83899e-17
      5542.00  9.28482e-17
      5544.00  9.66216e-17
      5546.00  9.74239e-17
      5548.00  9.63268e-17
      5550.00  9.61857e-17
      5552.00  9.60417e-17
      5554.00  9.58296e-17
      5556.00  9.58034e-17
      5558.00  9.57992e-17
      5560.00  9.41870e-17
      5562.00  9.07745e-17
      5564.00  8.79055e-17
      5566.00  8.43700e-17
      5568.00  8.14432e-17
      5570.00  8.24064e-17
      5572.00  8.72796e-17
      5574.00  9.17145e-17
      5576.00  9.81668e-17
      5578.00  1.03988e-16
      5580.00  1.06487e-16
      5582.00  1.05895e-16
      5584.00  1.06490e-16
      5586.00  1.06993e-16
      5588.00  1.07155e-16
      5590.00  1.06744e-16
      5592.00  1.05664e-16
      5594.00  1.05587e-16
      5596.00  1.06803e-16
      5598.00  1.06960e-16
      5600.00  1.05515e-16
      5602.00  1.03087e-16
      5604.00  1.01959e-16
      5606.00  1.01076e-16
      5608.00  1.01015e-16
      5610.00  1.02231e-16
      5612.00  1.03841e-16
      5614.00  1.04035e-16
      5616.00  1.02956e-16
      5618.00  1.02543e-16
      5620.00  1.02718e-16
      5622.00  1.02517e-16
      5624.00  1.00929e-16
      5626.00  9.69814e-17
      5628.00  9.65350e-17
      5630.00  9.90681e-17
      5632.00  1.01203e-16
      5634.00  1.01554e-16
      5636.00  1.00818e-16
      5638.00  1.00882e-16
      5640.00  1.01338e-16
      5642.00  1.01513e-16
      5644.00  1.00986e-16
      5646.00  1.00158e-16
      5648.00  1.01272e-16
      5650.00  1.04326e-16
      5652.00  1.06827e-16
      5654.00  1.09939e-16
      5656.00  1.12493e-16
      5658.00  1.11764e-16
      5660.00  1.06408e-16
      5662.00  1.04290e-16
      5664.00  1.03175e-16
      5666.00  1.03096e-16
      5668.00  1.04259e-16
      5670.00  1.07200e-16
      5672.00  1.09327e-16
      5674.00  1.11568e-16
      5676.00  1.13715e-16
      5678.00  1.16062e-16
      5680.00  1.18965e-16
      5682.00  1.18397e-16
      5684.00  1.14552e-16
      5686.00  1.10739e-16
      5688.00  1.06297e-16
      5690.00  1.01472e-16
      5692.00  1.00873e-16
      5694.00  1.04441e-16
      5696.00  1.07175e-16
      5698.00  1.10511e-16
      5700.00  1.13599e-16
      5702.00  1.14178e-16
      5704.00  1.12027e-16
      5706.00  1.10898e-16
      5708.00  1.08939e-16
      5710.00  1.07808e-16
      5712.00  1.09124e-16
      5714.00  1.13605e-16
      5716.00  1.14817e-16
      5718.00  1.14082e-16
      5720.00  1.13331e-16
      5722.00  1.13311e-16
      5724.00  1.13651e-16
      5726.00  1.12990e-16
      5728.00  1.10633e-16
      5730.00  1.09800e-16
      5732.00  1.11275e-16
      5734.00  1.14013e-16
      5736.00  1.14285e-16
      5738.00  1.12907e-16
      5740.00  1.11690e-16
      5742.00  1.09465e-16
      5744.00  1.07626e-16
      5746.00  1.08942e-16
      5748.00  1.15249e-16
      5750.00  1.16954e-16
      5752.00  1.15248e-16
      5754.00  1.13633e-16
      5756.00  1.15031e-16
      5758.00  1.19468e-16
      5760.00  1.20353e-16
      5762.00  1.18376e-16
      5764.00  1.17210e-16
      5766.00  1.17999e-16
      5768.00  1.19915e-16
      5770.00  1.22561e-16
      5772.00  1.28005e-16
      5774.00  1.30923e-16
      5776.00  1.30935e-16
      5778.00  1.28981e-16
      5780.00  1.26498e-16
      5782.00  1.20494e-16
      5784.00  1.18239e-16
      5786.00  1.19576e-16
      5788.00  1.22311e-16
      5790.00  1.23339e-16
      5792.00  1.24091e-16
      5794.00  1.24306e-16
      5796.00  1.23981e-16
      5798.00  1.23295e-16
      5800.00  1.22251e-16
      5802.00  1.20109e-16
      5804.00  1.20082e-16
      5806.00  1.22261e-16
      5808.00  1.23760e-16
      5810.00  1.23373e-16
      5812.00  1.21577e-16
      5814.00  1.22213e-16
      5816.00  1.24720e-16
      5818.00  1.26892e-16
      5820.00  1.29310e-16
      5822.00  1.31626e-16
      5824.00  1.30742e-16
      5826.00  1.24894e-16
      5828.00  1.22938e-16
      5830.00  1.24482e-16
      5832.00  1.27065e-16
      5834.00  1.27383e-16
      5836.00  1.26290e-16
      5838.00  1.25677e-16
      5840.00  1.25023e-16
      5842.00  1.24213e-16
      5844.00  1.22972e-16
      5846.00  1.20405e-16
      5848.00  1.21169e-16
      5850.00  1.25655e-16
      5852.00  1.28982e-16
      5854.00  1.29590e-16
      5856.00  1.28455e-16
      5858.00  1.28178e-16
      5860.00  1.27532e-16
      5862.00  1.27367e-16
      5864.00  1.28075e-16
      5866.00  1.29129e-16
      5868.00  1.28547e-16
      5870.00  1.27281e-16
      5872.00  1.24782e-16
      5874.00  1.20585e-16
      5876.00  1.15726e-16
      5878.00  1.11803e-16
      5880.00  1.06938e-16
      5882.00  1.04878e-16
      5884.00  1.04688e-16
      5886.00  1.05881e-16
      5888.00  1.08288e-16
      5890.00  1.12744e-16
      5892.00  1.15839e-16
      5894.00  1.19574e-16
      5896.00  1.21724e-16
      5898.00  1.21245e-16
      5900.00  1.18504e-16
      5902.00  1.18023e-16
      5904.00  1.19512e-16
      5906.00  1.19275e-16
      5908.00  1.16532e-16
      5910.00  1.12646e-16
      5912.00  1.11657e-16
      5914.00  1.12683e-16
      5916.00  1.13623e-16
      5918.00  1.15647e-16
      5920.00  1.17447e-16
      5922.00  1.16893e-16
      5924.00  1.13141e-16
      5926.00  1.11960e-16
      5928.00  1.11324e-16
      5930.00  1.11743e-16
      5932.00  1.13923e-16
      5934.00  1.19084e-16
      5936.00  1.19632e-16
      5938.00  1.16674e-16
      5940.00  1.13842e-16
      5942.00  1.11690e-16
      5944.00  1.09452e-16
      5946.00  1.09476e-16
      5948.00  1.13049e-16
      5950.00  1.14188e-16
      5952.00  1.12320e-16
      5954.00  1.08960e-16
      5956.00  1.07531e-16
      5958.00  1.05785e-16
      5960.00  1.06447e-16
      5962.00  1.10865e-16
      5964.00  1.15449e-16
      5966.00  1.15177e-16
      5968.00  1.09768e-16
      5970.00  1.07526e-16
      5972.00  1.05416e-16
      5974.00  1.04425e-16
      5976.00  1.05492e-16
      5978.00  1.09392e-16
      5980.00  1.09803e-16
      5982.00  1.08123e-16
      5984.00  1.06182e-16
      5986.00  1.03885e-16
      5988.00  1.00874e-16
      5990.00  1.01159e-16
      5992.00  1.05878e-16
      5994.00  1.07747e-16
      5996.00  1.06437e-16
      5998.00  1.03450e-16
      6000.00  1.01532e-16
      6002.00  9.88851e-17
      6004.00  9.76657e-17
      6006.00  9.76618e-17
      6008.00  9.83577e-17
      6010.00  9.91760e-17
      6012.00  1.00838e-16
      6014.00  1.01819e-16
      6016.00  1.02868e-16
      6018.00  1.03365e-16
      6020.00  1.02984e-16
      6022.00  1.02061e-16
      6024.00  9.98567e-17
      6026.00  9.47327e-17
      6028.00  9.15792e-17
      6030.00  9.18223e-17
      6032.00  9.44757e-17
      6034.00  9.56506e-17
      6036.00  9.56191e-17
      6038.00  9.75935e-17
      6040.00  1.02207e-16
      6042.00  1.08134e-16
      6044.00  1.11902e-16
      6046.00  1.17630e-16
      6048.00  1.16981e-16
      6050.00  1.08096e-16
      6052.00  9.81785e-17
      6054.00  9.63437e-17
      6056.00  1.01789e-16
      6058.00  1.03099e-16
      6060.00  1.04005e-16
      6062.00  1.04199e-16
      6064.00  1.03388e-16
      6066.00  1.01339e-16
      6068.00  1.00132e-16
      6070.00  9.82314e-17
      6072.00  9.78181e-17
      6074.00  9.99387e-17
      6076.00  1.04060e-16
      6078.00  1.05045e-16
      6080.00  1.03606e-16
      6082.00  1.03022e-16
      6084.00  1.03122e-16
      6086.00  1.03559e-16
      6088.00  1.04245e-16
      6090.00  1.05698e-16
      6092.00  1.06443e-16
      6094.00  1.06865e-16
      6096.00  1.06898e-16
      6098.00  1.06371e-16
      6100.00  1.04856e-16
      6102.00  1.04102e-16
      6104.00  1.03967e-16
      6106.00  1.03494e-16
      6108.00  1.01965e-16
      6110.00  9.91793e-17
      6112.00  9.84681e-17
      6114.00  9.89141e-17
      6116.00  9.99755e-17
      6118.00  1.02068e-16
      6120.00  1.05146e-16
      6122.00  1.05444e-16
      6124.00  1.02358e-16
      6126.00  1.01546e-16
      6128.00  1.03347e-16
      6130.00  1.06244e-16
      6132.00  1.07220e-16
      6134.00  1.06820e-16
      6136.00  1.07105e-16
      6138.00  1.07516e-16
      6140.00  1.08165e-16
      6142.00  1.09306e-16
      6144.00  1.11677e-16
      6146.00  1.12279e-16
      6148.00  1.11867e-16
      6150.00  1.10903e-16
      6152.00  1.09367e-16
      6154.00  1.06563e-16
      6156.00  1.06373e-16
      6158.00  1.08585e-16
      6160.00  1.10294e-16
      6162.00  1.10937e-16
      6164.00  1.11071e-16
      6166.00  1.11706e-16
      6168.00  1.12690e-16
      6170.00  1.13398e-16
      6172.00  1.13702e-16
      6174.00  1.13907e-16
      6176.00  1.14725e-16
      6178.00  1.16505e-16
      6180.00  1.17281e-16
      6182.00  1.17675e-16
      6184.00  1.17426e-16
      6186.00  1.16099e-16
      6188.00  1.12675e-16
      6190.00  1.11525e-16
      6192.00  1.11765e-16
      6194.00  1.12195e-16
      6196.00  1.12254e-16
      6198.00  1.12332e-16
      6200.00  1.12186e-16
      6202.00  1.11478e-16
      6204.00  1.11322e-16
      6206.00  1.12125e-16
      6208.00  1.13585e-16
      6210.00  1.13850e-16
      6212.00  1.13970e-16
      6214.00  1.12882e-16
      6216.00  1.10153e-16
      6218.00  1.06634e-16
      6220.00  1.04374e-16
      6222.00  1.02385e-16
      6224.00  1.01132e-16
      6226.00  1.00369e-16
      6228.00  1.00349e-16
      6230.00  1.01435e-16
      6232.00  1.04564e-16
      6234.00  1.05696e-16
      6236.00  1.05679e-16
      6238.00  1.05568e-16
      6240.00  1.05806e-16
      6242.00  1.06020e-16
      6244.00  1.06749e-16
      6246.00  1.08692e-16
      6248.00  1.09496e-16
      6250.00  1.08717e-16
      6252.00  1.06827e-16
      6254.00  1.04974e-16
      6256.00  1.02196e-16
      6258.00  1.00046e-16
      6260.00  9.80144e-17
      6262.00  9.65001e-17
      6264.00  9.68424e-17
      6266.00  9.95403e-17
      6268.00  1.01336e-16
      6270.00  1.03462e-16
      6272.00  1.05137e-16
      6274.00  1.05432e-16
      6276.00  1.04411e-16
      6278.00  1.03501e-16
      6280.00  1.01990e-16
      6282.00  1.00489e-16
      6284.00  9.92010e-17
      6286.00  9.78673e-17
      6288.00  9.72603e-17
      6290.00  9.66867e-17
      6292.00  9.72943e-17
      6294.00  9.96897e-17
      6296.00  1.03403e-16
      6298.00  1.05233e-16
      6300.00  1.07418e-16
      6302.00  1.06912e-16
      6304.00  1.02690e-16
      6306.00  9.70434e-17
      6308.00  9.49242e-17
      6310.00  9.46022e-17
      6312.00  9.50728e-17
      6314.00  9.76857e-17
      6316.00  1.00219e-16
      6318.00  1.00392e-16
      6320.00  9.87474e-17
      6322.00  9.74499e-17
      6324.00  9.53678e-17
      6326.00  9.35535e-17
      6328.00  9.24629e-17
      6330.00  9.18440e-17
      6332.00  9.13792e-17
      6334.00  9.15006e-17
      6336.00  9.13393e-17
      6338.00  9.04531e-17
      6340.00  8.92156e-17
      6342.00  8.99392e-17
      6344.00  9.31060e-17
      6346.00  9.47837e-17
      6348.00  9.54823e-17
      6350.00  9.54233e-17
      6352.00  9.44422e-17
      6354.00  9.11216e-17
      6356.00  9.01019e-17
      6358.00  9.03688e-17
      6360.00  9.14194e-17
      6362.00  9.29855e-17
      6364.00  9.64543e-17
      6366.00  9.69768e-17
      6368.00  9.49918e-17
      6370.00  9.32387e-17
      6372.00  9.28568e-17
      6374.00  9.32170e-17
      6376.00  9.33630e-17
      6378.00  9.39442e-17
      6380.00  9.40973e-17
      6382.00  9.34215e-17
      6384.00  9.22883e-17
      6386.00  9.27544e-17
      6388.00  9.51968e-17
      6390.00  9.62443e-17
      6392.00  9.63533e-17
      6394.00  9.57192e-17
      6396.00  9.42455e-17
      6398.00  9.06127e-17
      6400.00  8.90827e-17
      6402.00  8.87144e-17
      6404.00  8.90131e-17
      6406.00  8.96300e-17
      6408.00  9.10513e-17
      6410.00  9.20466e-17
      6412.00  9.35497e-17
      6414.00  9.42493e-17
      6416.00  9.34287e-17
      6418.00  9.11828e-17
      6420.00  9.02677e-17
      6422.00  8.95266e-17
      6424.00  8.95053e-17
      6426.00  9.05117e-17
      6428.00  9.22514e-17
      6430.00  9.31004e-17
      6432.00  9.39721e-17
      6434.00  9.39833e-17
      6436.00  9.31037e-17
      6438.00  9.16370e-17
      6440.00  9.00836e-17
      6442.00  8.75964e-17
      6444.00  8.61716e-17
      6446.00  8.52421e-17
      6448.00  8.48191e-17
      6450.00  8.49772e-17
      6452.00  8.60018e-17
      6454.00  8.65879e-17
      6456.00  8.71034e-17
      6458.00  8.76868e-17
      6460.00  8.86187e-17
      6462.00  9.00642e-17
      6464.00  8.94352e-17
      6466.00  8.62516e-17
      6468.00  8.42894e-17
      6470.00  8.39620e-17
      6472.00  8.45527e-17
      6474.00  8.47247e-17
      6476.00  8.48862e-17
      6478.00  8.53309e-17
      6480.00  8.62166e-17
      6482.00  8.71927e-17
      6484.00  8.76126e-17
      6486.00  8.81446e-17
      6488.00  8.75519e-17
      6490.00  8.50336e-17
      6492.00  8.30653e-17
      6494.00  8.38846e-17
      6496.00  8.77800e-17
      6498.00  8.88093e-17
      6500.00  8.86737e-17
      6502.00  8.79606e-17
      6504.00  8.65438e-17
      6506.00  8.40581e-17
      6508.00  8.38645e-17
      6510.00  8.60811e-17
      6512.00  8.71550e-17
      6514.00  8.66713e-17
      6516.00  8.53650e-17
      6518.00  8.48470e-17
      6520.00  8.37938e-17
      6522.00  8.43075e-17
      6524.00  8.69440e-17
      6526.00  9.00912e-17
      6528.00  9.09999e-17
      6530.00  9.02523e-17
      6532.00  8.97523e-17
      6534.00  8.84234e-17
      6536.00  8.73927e-17
      6538.00  8.75711e-17
      6540.00  8.85206e-17
      6542.00  9.00873e-17
      6544.00  9.34760e-17
      6546.00  9.58021e-17
      6548.00  9.58468e-17
      6550.00  9.40835e-17
      6552.00  9.40155e-17
      6554.00  9.49492e-17
      6556.00  9.54027e-17
      6558.00  9.53967e-17
      6560.00  9.50684e-17
      6562.00  9.41294e-17
      6564.00  9.18374e-17
      6566.00  9.07330e-17
      6568.00  9.05092e-17
      6570.00  9.08387e-17
      6572.00  9.14030e-17
      6574.00  9.34431e-17
      6576.00  9.34570e-17
      6578.00  9.17823e-17
      6580.00  8.99544e-17
      6582.00  8.90881e-17
      6584.00  8.84505e-17
      6586.00  8.86666e-17
      6588.00  9.01820e-17
      6590.00  9.13597e-17
      6592.00  9.17732e-17
      6594.00  9.18091e-17
      6596.00  9.10846e-17
      6598.00  8.85449e-17
      6600.00  8.74887e-17
      6602.00  8.84817e-17
      6604.00  9.05755e-17
      6606.00  9.10115e-17
      6608.00  9.03882e-17
      6610.00  9.01006e-17
      6612.00  8.97740e-17
      6614.00  8.95718e-17
      6616.00  8.98959e-17
      6618.00  9.12645e-17
      6620.00  9.14662e-17
      6622.00  9.05959e-17
      6624.00  8.99179e-17
      6626.00  9.04792e-17
      6628.00  9.24826e-17
      6630.00  9.25296e-17
      6632.00  9.09778e-17
      6634.00  8.97572e-17
      6636.00  8.95701e-17
      6638.00  9.00574e-17
      6640.00  8.94281e-17
      6642.00  8.70838e-17
      6644.00  8.64584e-17
      6646.00  8.81045e-17
      6648.00  9.10163e-17
      6650.00  9.23906e-17
      6652.00  9.34080e-17
      6654.00  9.37925e-17
      6656.00  9.31033e-17
      6658.00  9.22278e-17
      6660.00  9.25610e-17
      6662.00  9.41921e-17
      6664.00  9.48673e-17
      6666.00  9.54124e-17
      6668.00  9.55297e-17
      6670.00  9.49122e-17
      6672.00  9.32493e-17
      6674.00  9.27222e-17
      6676.00  9.25452e-17
      6678.00  9.28812e-17
      6680.00  9.39858e-17
      6682.00  9.58710e-17
      6684.00  9.65824e-17
      6686.00  9.68941e-17
      6688.00  9.65871e-17
      6690.00  9.51016e-17
      6692.00  9.30943e-17
      6694.00  9.33032e-17
      6696.00  9.61816e-17
      6698.00  9.71426e-17
      6700.00  9.65156e-17
      6702.00  9.54779e-17
      6704.00  9.54851e-17
      6706.00  9.60748e-17
      6708.00  9.66507e-17
      6710.00  9.74476e-17
      6712.00  9.83558e-17
      6714.00  9.93353e-17
      6716.00  1.00548e-16
      6718.00  1.01339e-16
      6720.00  1.02247e-16
      6722.00  1.02450e-16
      6724.00  1.01353e-16
      6726.00  9.90813e-17
      6728.00  9.91731e-17
      6730.00  1.01022e-16
      6732.00  1.02776e-16
      6734.00  1.04839e-16
      6736.00  1.06995e-16
      6738.00  1.07566e-16
      6740.00  1.06603e-16
      6742.00  1.05948e-16
      6744.00  1.05079e-16
      6746.00  1.04213e-16
      6748.00  1.03782e-16
      6750.00  1.03007e-16
      6752.00  1.03794e-16
      6754.00  1.06678e-16
      6756.00  1.09093e-16
      6758.00  1.09251e-16
      6760.00  1.07408e-16
      6762.00  1.07180e-16
      6764.00  1.07298e-16
      6766.00  1.07926e-16
      6768.00  1.09523e-16
      6770.00  1.12058e-16
      6772.00  1.11967e-16
      6774.00  1.08942e-16
      6776.00  1.07464e-16
      6778.00  1.07777e-16
      6780.00  1.08914e-16
      6782.00  1.09023e-16
      6784.00  1.08150e-16
      6786.00  1.08377e-16
      6788.00  1.09765e-16
      6790.00  1.11323e-16
      6792.00  1.11787e-16
      6794.00  1.10969e-16
      6796.00  1.11395e-16
      6798.00  1.12779e-16
      6800.00  1.13963e-16
      6802.00  1.14197e-16
      6804.00  1.13671e-16
      6806.00  1.13567e-16
      6808.00  1.13671e-16
      6810.00  1.13511e-16
      6812.00  1.12912e-16
      6814.00  1.11970e-16
      6816.00  1.11373e-16
      6818.00  1.10903e-16
      6820.00  1.10476e-16
      6822.00  1.09877e-16
      6824.00  1.09391e-16
      6826.00  1.09984e-16
      6828.00  1.11756e-16
      6830.00  1.13229e-16
      6832.00  1.15084e-16
      6834.00  1.16679e-16
      6836.00  1.17070e-16
      6838.00  1.15876e-16
      6840.00  1.15842e-16
      6842.00  1.16459e-16
      6844.00  1.16906e-16
      6846.00  1.16627e-16
      6848.00  1.15638e-16
      6850.00  1.15510e-16
      6852.00  1.15802e-16
      6854.00  1.16292e-16
      6856.00  1.17322e-16
      6858.00  1.18861e-16
      6860.00  1.17957e-16
      6862.00  1.13785e-16
      6864.00  1.11741e-16
      6866.00  1.11623e-16
      6868.00  1.12764e-16
      6870.00  1.14700e-16
      6872.00  1.19748e-16
      6874.00  1.21396e-16
      6876.00  1.19900e-16
      6878.00  1.17731e-16
      6880.00  1.17755e-16
      6882.00  1.19970e-16
      6884.00  1.19835e-16
      6886.00  1.17871e-16
      6888.00  1.16203e-16
      6890.00  1.16056e-16
      6892.00  1.16962e-16
      6894.00  1.17553e-16
      6896.00  1.18793e-16
      6898.00  1.19364e-16
      6900.00  1.18842e-16
      6902.00  1.17520e-16
      6904.00  1.16992e-16
      6906.00  1.15956e-16
      6908.00  1.16475e-16
      6910.00  1.18318e-16
      6912.00  1.21415e-16
      6914.00  1.26139e-16
      6916.00  1.36013e-16
      6918.00  1.39774e-16
      6920.00  1.39001e-16
      6922.00  1.35934e-16
      6924.00  1.32716e-16
      6926.00  1.26024e-16
      6928.00  1.23969e-16
      6930.00  1.25162e-16
      6932.00  1.26836e-16
      6934.00  1.27442e-16
      6936.00  1.27543e-16
      6938.00  1.29186e-16
      6940.00  1.34147e-16
      6942.00  1.35925e-16
      6944.00  1.30965e-16
      6946.00  1.21315e-16
      6948.00  1.25858e-16
      6950.00  1.45514e-16
      6952.00  1.57789e-16
      6954.00  1.65466e-16
      6956.00  1.69123e-16
      6958.00  1.64588e-16
      6960.00  1.47843e-16
      6962.00  1.36465e-16
      6964.00  1.25024e-16
      6966.00  1.15632e-16
      6968.00  1.11454e-16
      6970.00  1.13263e-16
      6972.00  1.12998e-16
      6974.00  1.14190e-16
      6976.00  1.14558e-16
      6978.00  1.12623e-16
      6980.00  1.08333e-16
      6982.00  1.07133e-16
      6984.00  1.07983e-16
      6986.00  1.08735e-16
      6988.00  1.09186e-16
      6990.00  1.09664e-16
      6992.00  1.09575e-16
      6994.00  1.08756e-16
      6996.00  1.08306e-16
      6998.00  1.08190e-16
      7000.00  1.08226e-16
      7002.00  1.08171e-16
      7004.00  1.08255e-16
      7006.00  1.08075e-16
      7008.00  1.07672e-16
      7010.00  1.07169e-16
      7012.00  1.06705e-16
      7014.00  1.06488e-16
      7016.00  1.05522e-16
      7018.00  1.03683e-16
      7020.00  1.02022e-16
      7022.00  1.01042e-16
      7024.00  1.00468e-16
      7026.00  1.00054e-16
      7028.00  1.00226e-16
      7030.00  1.00070e-16
      7032.00  9.91886e-17
      7034.00  9.78785e-17
      7036.00  9.80942e-17
      7038.00  9.98362e-17
      7040.00  1.01011e-16
      7042.00  1.01641e-16
      7044.00  1.02167e-16
      7046.00  1.03277e-16
      7048.00  1.05943e-16
      7050.00  1.06277e-16
      7052.00  1.04541e-16
      7054.00  1.02243e-16
      7056.00  1.00852e-16
      7058.00  9.95879e-17
      7060.00  9.87117e-17
      7062.00  9.85674e-17
      7064.00  9.81302e-17
      7066.00  9.67213e-17
      7068.00  9.42662e-17
      7070.00  9.38617e-17
      7072.00  9.52393e-17
      7074.00  9.62788e-17
      7076.00  9.68779e-17
      7078.00  9.73037e-17
      7080.00  9.67898e-17
      7082.00  9.44996e-17
      7084.00  9.36932e-17
      7086.00  9.34899e-17
      7088.00  9.44356e-17
      7090.00  9.84815e-17
      7092.00  1.08384e-16
      7094.00  1.13056e-16
      7096.00  1.15183e-16
      7098.00  1.15276e-16
      7100.00  1.13393e-16
      7102.00  1.07119e-16
      7104.00  1.05459e-16
      7106.00  1.05907e-16
      7108.00  1.07527e-16
      7110.00  1.10714e-16
      7112.00  1.16800e-16
      7114.00  1.15805e-16
      7116.00  1.08120e-16
      7118.00  1.01926e-16
      7120.00  9.80690e-17
      7122.00  9.52246e-17
      7124.00  9.26541e-17
      7126.00  9.10112e-17
      7128.00  8.91930e-17
      7130.00  8.66995e-17
      7132.00  8.45856e-17
      7134.00  8.50882e-17
      7136.00  8.89897e-17
      7138.00  9.09359e-17
      7140.00  9.28535e-17
      7142.00  9.37465e-17
      7144.00  9.23853e-17
      7146.00  8.75767e-17
      7148.00  8.62567e-17
      7150.00  8.65414e-17
      7152.00  8.75725e-17
      7154.00  8.94194e-17
      7156.00  9.27932e-17
      7158.00  9.27669e-17
      7160.00  8.90826e-17
      7162.00  8.70376e-17
      7164.00  8.74719e-17
      7166.00  8.92890e-17
      7168.00  8.97983e-17
      7170.00  9.00518e-17
      7172.00  8.99265e-17
      7174.00  8.92385e-17
      7176.00  8.83122e-17
      7178.00  8.78353e-17
      7180.00  8.78618e-17
      7182.00  8.73176e-17
      7184.00  8.60989e-17
      7186.00  8.50424e-17
      7188.00  8.49191e-17
      7190.00  8.55561e-17
      7192.00  8.61170e-17
      7194.00  8.73888e-17
      7196.00  8.81080e-17
      7198.00  8.75044e-17
      7200.00  8.55876e-17
      7202.00  8.59118e-17
      7204.00  8.82791e-17
      7206.00  8.98787e-17
      7208.00  9.05369e-17
      7210.00  9.06535e-17
      7212.00  9.02185e-17
      7214.00  8.85548e-17
      7216.00  8.76659e-17
      7218.00  8.71862e-17
      7220.00  8.71338e-17
      7222.00  8.78287e-17
      7224.00  9.02858e-17
      7226.00  9.08901e-17
      7228.00  9.01595e-17
      7230.00  8.91455e-17
      7232.00  8.87627e-17
      7234.00  8.89025e-17
      7236.00  8.81394e-17
      7238.00  8.66161e-17
      7240.00  8.51214e-17
      7242.00  8.39230e-17
      7244.00  8.28195e-17
      7246.00  8.18779e-17
      7248.00  8.04970e-17
      7250.00  8.02551e-17
      7252.00  8.17725e-17
      7254.00  8.43755e-17
      7256.00  8.49486e-17
      7258.00  8.34238e-17
      7260.00  8.34936e-17
      7262.00  8.53318e-17
      7264.00  8.75367e-17
      7266.00  8.78250e-17
      7268.00  8.59804e-17
      7270.00  8.57565e-17
      7272.00  8.64973e-17
      7274.00  8.73104e-17
      7276.00  8.75013e-17
      7278.00  8.75053e-17
      7280.00  8.69956e-17
      7282.00  8.52731e-17
      7284.00  8.43362e-17
      7286.00  8.50459e-17
      7288.00  8.70728e-17
      7290.00  8.81858e-17
      7292.00  8.91044e-17
      7294.00  8.99947e-17
      7296.00  9.10510e-17
      7298.00  9.20816e-17
      7300.00  9.20402e-17
      7302.00  9.07821e-17
      7304.00  8.99198e-17
      7306.00  8.93211e-17
      7308.00  8.86959e-17
      7310.00  8.76875e-17
      7312.00  8.61294e-17
      7314.00  8.50336e-17
      7316.00  8.38853e-17
      7318.00  8.31602e-17
      7320.00  8.33748e-17
      7322.00  8.51120e-17
      7324.00  8.47819e-17
      7326.00  8.24087e-17
      7328.00  8.08635e-17
      7330.00  8.13199e-17
      7332.00  8.32817e-17
      7334.00  8.37350e-17
      7336.00  8.29727e-17
      7338.00  8.31049e-17
      7340.00  8.45045e-17
      7342.00  8.65927e-17
      7344.00  8.76367e-17
      7346.00  8.83943e-17
      7348.00  8.85887e-17
      7350.00  8.79209e-17
      7352.00  8.69964e-17
      7354.00  8.68620e-17
      7356.00  8.72535e-17
      7358.00  8.75694e-17
      7360.00  8.86588e-17
      7362.00  8.90577e-17
      7364.00  8.74160e-17
      7366.00  8.30553e-17
      7368.00  8.19818e-17
      7370.00  8.27428e-17
      7372.00  8.40343e-17
      7374.00  8.58026e-17
      7376.00  8.84926e-17
      7378.00  8.89406e-17
      7380.00  8.77881e-17
      7382.00  8.63485e-17
      7384.00  8.41249e-17
      7386.00  8.14736e-17
      7388.00  8.10650e-17
      7390.00  8.28780e-17
      7392.00  8.38973e-17
      7394.00  8.49602e-17
      7396.00  8.56617e-17
      7398.00  8.50371e-17
      7400.00  8.20620e-17
      7402.00  8.13420e-17
      7404.00  8.18272e-17
      7406.00  8.27736e-17
      7408.00  8.38160e-17
      7410.00  8.59942e-17
      7412.00  8.55653e-17
      7414.00  8.24340e-17
      7416.00  7.99585e-17
      7418.00  7.90933e-17
      7420.00  7.91201e-17
      7422.00  7.95284e-17
      7424.00  8.10615e-17
      7426.00  8.21541e-17
      7428.00  8.26209e-17
      7430.00  8.28456e-17
      7432.00  8.37620e-17
      7434.00  8.54557e-17
      7436.00  8.65831e-17
      7438.00  8.76782e-17
      7440.00  8.82855e-17
      7442.00  8.75602e-17
      7444.00  8.45690e-17
      7446.00  8.34837e-17
      7448.00  8.33025e-17
      7450.00  8.34113e-17
      7452.00  8.34888e-17
      7454.00  8.41789e-17
      7456.00  8.33462e-17
      7458.00  8.05146e-17
      7460.00  7.86906e-17
      7462.00  7.90058e-17
      7464.00  8.09089e-17
      7466.00  8.09322e-17
      7468.00  7.90981e-17
      7470.00  7.87927e-17
      7472.00  8.06378e-17
      7474.00  8.35073e-17
      7476.00  8.41711e-17
      7478.00  8.34240e-17
      7480.00  8.26685e-17
      7482.00  8.12490e-17
      7484.00  7.98112e-17
      7486.00  7.94499e-17
      7488.00  7.99272e-17
      7490.00  8.04447e-17
      7492.00  8.17681e-17
      7494.00  8.27373e-17
      7496.00  8.24727e-17
      7498.00  8.09492e-17
      7500.00  8.05516e-17
      7502.00  8.06796e-17
      7504.00  8.08439e-17
      7506.00  8.07862e-17
      7508.00  8.05897e-17
      7510.00  8.15227e-17
      7512.00  8.42316e-17
      7514.00  8.56287e-17
      7516.00  8.57228e-17
      7518.00  8.49273e-17
      7520.00  8.35347e-17
      7522.00  7.99652e-17
      7524.00  7.86451e-17
      7526.00  7.93436e-17
      7528.00  8.07090e-17
      7530.00  8.10596e-17
      7532.00  8.09764e-17
      7534.00  8.10242e-17
      7536.00  8.08044e-17
      7538.00  8.08193e-17
      7540.00  8.14524e-17
      7542.00  8.27673e-17
      7544.00  8.34254e-17
      7546.00  8.37242e-17
      7548.00  8.40454e-17
      7550.00  8.47007e-17
      7552.00  8.56188e-17
      7554.00  8.48581e-17
      7556.00  8.17744e-17
      7558.00  8.01506e-17
      7560.00  8.01120e-17
      7562.00  8.09485e-17
      7564.00  8.14953e-17
      7566.00  8.24193e-17
      7568.00  8.30932e-17
      7570.00  8.34926e-17
      7572.00  8.39254e-17
      7574.00  8.47983e-17
      7576.00  8.68936e-17
      7578.00  8.70158e-17
      7580.00  8.49416e-17
      7582.00  8.34698e-17
      7584.00  8.46539e-17
      7586.00  8.87352e-17
      7588.00  8.87275e-17
      7590.00  8.43928e-17
      7592.00  8.23948e-17
      7594.00  8.49571e-17
      7596.00  9.07226e-17
      7598.00  9.23208e-17
      7600.00  9.24916e-17
      7602.00  9.10030e-17
      7604.00  8.64162e-17
      7606.00  8.05778e-17
      7608.00  7.99334e-17
      7610.00  8.49667e-17
      7612.00  8.64072e-17
      7614.00  8.62885e-17
      7616.00  8.47996e-17
      7618.00  8.16136e-17
      7620.00  7.30444e-17
      7622.00  7.19901e-17
      7624.00  7.63325e-17
      7626.00  8.16000e-17
      7628.00  8.54804e-17
      7630.00  9.01176e-17
      7632.00  9.14257e-17
      7634.00  8.95274e-17
      7636.00  8.76740e-17
      7638.00  8.63029e-17
      7640.00  8.48314e-17
      7642.00  8.44580e-17
      7644.00  8.52054e-17
      7646.00  8.57732e-17
      7648.00  8.62609e-17
      7650.00  8.67608e-17
      7652.00  8.71558e-17
      7654.00  8.82864e-17
      7656.00  8.77282e-17
      7658.00  8.50767e-17
      7660.00  8.22049e-17
      7662.00  8.13897e-17
      7664.00  8.19615e-17
      7666.00  8.26143e-17
      7668.00  8.41854e-17
      7670.00  8.56891e-17
      7672.00  8.66482e-17
      7674.00  8.75232e-17
      7676.00  8.73774e-17
      7678.00  8.57575e-17
      7680.00  8.46763e-17
      7682.00  8.45019e-17
      7684.00  8.48605e-17
      7686.00  8.54871e-17
      7688.00  8.71760e-17
      7690.00  8.79333e-17
      7692.00  8.77777e-17
      7694.00  8.70492e-17
      7696.00  8.62192e-17
      7698.00  8.43922e-17
      7700.00  8.37316e-17
      7702.00  8.37997e-17
      7704.00  8.44312e-17
      7706.00  8.55533e-17
      7708.00  8.81416e-17
      7710.00  8.89160e-17
      7712.00  8.85982e-17
      7714.00  8.79319e-17
      7716.00  8.72897e-17
      7718.00  8.64175e-17
      7720.00  8.54747e-17
      7722.00  8.36519e-17
      7724.00  8.29378e-17
      7726.00  8.39594e-17
      7728.00  8.62560e-17
      7730.00  8.74232e-17
      7732.00  8.83133e-17
      7734.00  8.90047e-17
      7736.00  8.94577e-17
      7738.00  8.97119e-17
      7740.00  8.99039e-17
      7742.00  8.99353e-17
      7744.00  8.99384e-17
      7746.00  8.90311e-17
      7748.00  8.88870e-17
      7750.00  9.16108e-17
      7752.00  9.94255e-17
      7754.00  1.00926e-16
      7756.00  9.84141e-17
      7758.00  9.50119e-17
      7760.00  9.19687e-17
      7762.00  8.77843e-17
      7764.00  8.65585e-17
      7766.00  8.81469e-17
      7768.00  8.92471e-17
      7770.00  8.91923e-17
      7772.00  8.86362e-17
      7774.00  8.91449e-17
      7776.00  9.04561e-17
      7778.00  9.16669e-17
      7780.00  9.33241e-17
      7782.00  9.48367e-17
      7784.00  9.43637e-17
      7786.00  9.05664e-17
      7788.00  8.98964e-17
      7790.00  9.23074e-17
      7792.00  9.46377e-17
      7794.00  9.35043e-17
      7796.00  8.90302e-17
      7798.00  8.65970e-17
      7800.00  8.37078e-17
      7802.00  8.22151e-17
      7804.00  8.31584e-17
      7806.00  8.63222e-17
      7808.00  8.91636e-17
      7810.00  9.41491e-17
      7812.00  9.70225e-17
      7814.00  9.68565e-17
      7816.00  9.45568e-17
      7818.00  9.29652e-17
      7820.00  8.96938e-17
      7822.00  8.86147e-17
      7824.00  9.00626e-17
      7826.00  9.26805e-17
      7828.00  9.37791e-17
      7830.00  9.51343e-17
      7832.00  9.46670e-17
      7834.00  9.14176e-17
      7836.00  8.84096e-17
      7838.00  8.89502e-17
      7840.00  9.38362e-17
      7842.00  9.42577e-17
      7844.00  9.18498e-17
      7846.00  8.94496e-17
      7848.00  8.82822e-17
      7850.00  8.75087e-17
      7852.00  8.74344e-17
      7854.00  8.79183e-17
      7856.00  8.90576e-17
      7858.00  9.14451e-17
      7860.00  9.47335e-17
      7862.00  9.50821e-17
      7864.00  9.29803e-17
      7866.00  9.11492e-17
      7868.00  8.87398e-17
      7870.00  8.63808e-17
      7872.00  8.61434e-17
      7874.00  8.83764e-17
      7876.00  8.93312e-17
      7878.00  9.00757e-17
      7880.00  9.04485e-17
      7882.00  9.01466e-17
      7884.00  8.86738e-17
      7886.00  8.84521e-17
      7888.00  8.89067e-17
      7890.00  8.95474e-17
      7892.00  9.01379e-17
      7894.00  9.07668e-17
      7896.00  9.18514e-17
      7898.00  9.42649e-17
      7900.00  9.52744e-17
      7902.00  9.42244e-17
      7904.00  9.17939e-17
      7906.00  9.05667e-17
      7908.00  9.00799e-17
      7910.00  8.88709e-17
      7912.00  8.63470e-17
      7914.00  8.37916e-17
      7916.00  8.39267e-17
      7918.00  8.73194e-17
      7920.00  8.86626e-17
      7922.00  8.92789e-17
      7924.00  8.93877e-17
      7926.00  8.90814e-17
      7928.00  8.81618e-17
      7930.00  8.72148e-17
      7932.00  8.51787e-17
      7934.00  8.41725e-17
      7936.00  8.54867e-17
      7938.00  8.91156e-17
      7940.00  8.94627e-17
      7942.00  8.71165e-17
      7944.00  8.57047e-17
      7946.00  8.56249e-17
      7948.00  8.62572e-17
      7950.00  8.68898e-17
      7952.00  8.87968e-17
      7954.00  8.90282e-17
      7956.00  8.72206e-17
      7958.00  8.47384e-17
      7960.00  8.41147e-17
      7962.00  8.38263e-17
      7964.00  8.53125e-17
      7966.00  8.98175e-17
      7968.00  9.39134e-17
      7970.00  9.43253e-17
      7972.00  9.13458e-17
      7974.00  9.02366e-17
      7976.00  8.93346e-17
      7978.00  8.85446e-17
      7980.00  8.77760e-17
      7982.00  8.69955e-17
      7984.00  8.68479e-17
      7986.00  8.73332e-17
      7988.00  8.78445e-17
      7990.00  8.87791e-17
      7992.00  8.98878e-17
      7994.00  8.85680e-17
      7996.00  8.33408e-17
      7998.00  8.14408e-17
      8000.00  8.28673e-17
      8002.00  8.55687e-17
      8004.00  8.63032e-17
      8006.00  8.63930e-17
      8008.00  8.59914e-17
      8010.00  8.44380e-17
      8012.00  8.30379e-17
      8014.00  8.30099e-17
      8016.00  8.43131e-17
      8018.00  8.46421e-17
      8020.00  8.45081e-17
      8022.00  8.44948e-17
      8024.00  8.47344e-17
      8026.00  8.50163e-17
      8028.00  8.61511e-17
      8030.00  8.91814e-17
      8032.00  9.04928e-17
      8034.00  8.91864e-17
      8036.00  8.63567e-17
      8038.00  8.61197e-17
      8040.00  8.76861e-17
      8042.00  8.87794e-17
      8044.00  9.00888e-17
      8046.00  9.11622e-17
      8048.00  9.08107e-17
      8050.00  8.80202e-17
      8052.00  8.75831e-17
      8054.00  8.85497e-17
      8056.00  9.00299e-17
      8058.00  9.14029e-17
      8060.00  9.35427e-17
      8062.00  9.41663e-17
      8064.00  9.35797e-17
      8066.00  9.28675e-17
      8068.00  9.24365e-17
      8070.00  9.20615e-17
      8072.00  9.12077e-17
      8074.00  8.94008e-17
      8076.00  8.84537e-17
      8078.00  8.86150e-17
      8080.00  8.94830e-17
      8082.00  9.00592e-17
      8084.00  9.13851e-17
      8086.00  9.15016e-17
      8088.00  9.02192e-17
      8090.00  8.84741e-17
      8092.00  8.77992e-17
      8094.00  8.77944e-17
      8096.00  8.76427e-17
      8098.00  8.76166e-17
      8100.00  8.76401e-17
      8102.00  8.76702e-17
      8104.00  8.78945e-17
      8106.00  8.76186e-17
      8108.00  8.65821e-17
      8110.00  8.60005e-17
      8112.00  8.63644e-17
      8114.00  8.74590e-17
      8116.00  8.81001e-17
      8118.00  8.89475e-17
      8120.00  8.93282e-17
      8122.00  8.89597e-17
      8124.00  8.81802e-17
      8126.00  8.84226e-17
      8128.00  8.97529e-17
      8130.00  9.03408e-17
      8132.00  9.07403e-17
      8134.00  9.06110e-17
      8136.00  8.91516e-17
      8138.00  8.49761e-17
      8140.00  8.35823e-17
      8142.00  8.36088e-17
      8144.00  8.44824e-17
      8146.00  8.59262e-17
      8148.00  8.88614e-17
      8150.00  8.99493e-17
      8152.00  8.98232e-17
      8154.00  8.96430e-17
      8156.00  8.98462e-17
      8158.00  9.02176e-17
      8160.00  8.97562e-17
      8162.00  8.78422e-17
      8164.00  8.71675e-17
      8166.00  8.81202e-17
      8168.00  9.00132e-17
      8170.00  9.10092e-17
      8172.00  9.16870e-17
      8174.00  9.24333e-17
      8176.00  9.34304e-17
      8178.00  9.42259e-17
      8180.00  9.40862e-17
      8182.00  9.31448e-17
      8184.00  9.19962e-17
      8186.00  8.99032e-17
      8188.00  8.80946e-17
      8190.00  8.75756e-17
      8192.00  8.83889e-17
      8194.00  8.79779e-17
      8196.00  8.65702e-17
      8198.00  8.57169e-17
      8200.00  8.61106e-17
      8202.00  8.75083e-17
      8204.00  8.73139e-17
      8206.00  8.55288e-17
      8208.00  8.47044e-17
      8210.00  8.53111e-17
      8212.00  8.65508e-17
      8214.00  8.60635e-17
      8216.00  8.28253e-17
      8218.00  8.26477e-17
      8220.00  8.57414e-17
      8222.00  8.96124e-17
      8224.00  9.07108e-17
      8226.00  8.99208e-17
      8228.00  8.94113e-17
      8230.00  8.80786e-17
      8232.00  8.69017e-17
      8234.00  8.66141e-17
      8236.00  8.70531e-17
      8238.00  8.71554e-17
      8240.00  8.73925e-17
      8242.00  8.74592e-17
      8244.00  8.72378e-17
      8246.00  8.67832e-17
      8248.00  8.64691e-17
      8250.00  8.56566e-17
      8252.00  8.57593e-17
      8254.00  8.70983e-17
      8256.00  8.91392e-17
      8258.00  9.02368e-17
      8260.00  9.05541e-17
      8262.00  9.15311e-17
      8264.00  9.32706e-17
      8266.00  9.50378e-17
      8268.00  9.58071e-17
      8270.00  9.62838e-17
      8272.00  9.56681e-17
      8274.00  9.41520e-17
      8276.00  9.18617e-17
      8278.00  8.85427e-17
      8280.00  8.28093e-17
      8282.00  8.17626e-17
      8284.00  8.53276e-17
      8286.00  8.76742e-17
      8288.00  8.68961e-17
      8290.00  8.41254e-17
      8292.00  8.41091e-17
      8294.00  8.69359e-17
      8296.00  8.75997e-17
      8298.00  8.54358e-17
      8300.00  8.18930e-17
      8302.00  8.06390e-17
      8304.00  8.00874e-17
      8306.00  8.06838e-17
      8308.00  8.34688e-17
      8310.00  8.63591e-17
      8312.00  8.63083e-17
      8314.00  8.30505e-17
      8316.00  8.18789e-17
      8318.00  8.08621e-17
      8320.00  8.06258e-17
      8322.00  8.17360e-17
      8324.00  8.45775e-17
      8326.00  8.57940e-17
      8328.00  8.61210e-17
      8330.00  8.65406e-17
      8332.00  8.77507e-17
      8334.00  8.95719e-17
      8336.00  8.78844e-17
      8338.00  8.13389e-17
      8340.00  7.79051e-17
      8342.00  7.82610e-17
      8344.00  8.04261e-17
      8346.00  8.00856e-17
      8348.00  7.74635e-17
      8350.00  7.70425e-17
      8352.00  7.84927e-17
      8354.00  8.05646e-17
      8356.00  8.17877e-17
      8358.00  8.37782e-17
      8360.00  8.33992e-17
      8362.00  8.01234e-17
      8364.00  7.73966e-17
      8366.00  7.75410e-17
      8368.00  8.01616e-17
      8370.00  8.06986e-17
      8372.00  7.98015e-17
      8374.00  7.97319e-17
      8376.00  8.15461e-17
      8378.00  8.47676e-17
      8380.00  8.44544e-17
      8382.00  8.07175e-17
      8384.00  7.82851e-17
      8386.00  7.70243e-17
      8388.00  7.63588e-17
      8390.00  7.59683e-17
      8392.00  7.63553e-17
      8394.00  7.63782e-17
      8396.00  7.63678e-17
      8398.00  7.61936e-17
      8400.00  7.56029e-17
      8402.00  7.39387e-17
      8404.00  7.37916e-17
      8406.00  7.45740e-17
      8408.00  7.57627e-17
      8410.00  7.71728e-17
      8412.00  7.93109e-17
      8414.00  8.01494e-17
      8416.00  8.07459e-17
      8418.00  8.01187e-17
      8420.00  7.76080e-17
      8422.00  7.34727e-17
      8424.00  7.14978e-17
      8426.00  6.91831e-17
      8428.00  6.97414e-17
      8430.00  7.46620e-17
      8432.00  8.14731e-17
      8434.00  8.29729e-17
      8436.00  8.04430e-17
      8438.00  7.87576e-17
      8440.00  7.61293e-17
      8442.00  7.37868e-17
      8444.00  7.35727e-17
      8446.00  7.59385e-17
      8448.00  7.64443e-17
      8450.00  7.58817e-17
      8452.00  7.56650e-17
      8454.00  7.66329e-17
      8456.00  7.85028e-17
      8458.00  8.01651e-17
      8460.00  8.34676e-17
      8462.00  8.45540e-17
      8464.00  8.19198e-17
      8466.00  7.64760e-17
      8468.00  7.47529e-17
      8470.00  7.46672e-17
      8472.00  7.53844e-17
      8474.00  7.74366e-17
      8476.00  8.02626e-17
      8478.00  8.18546e-17
      8480.00  8.33060e-17
      8482.00  8.37407e-17
      8484.00  8.28527e-17
      8486.00  8.16449e-17
      8488.00  8.13338e-17
      8490.00  8.20852e-17
      8492.00  8.13549e-17
      8494.00  7.90336e-17
      8496.00  7.72598e-17
      8498.00  7.73259e-17
      8500.00  7.89865e-17
      8502.00  7.93695e-17
      8504.00  7.93467e-17
      8506.00  7.91787e-17
      8508.00  7.89049e-17
      8510.00  7.84795e-17
      8512.00  7.79051e-17
      8514.00  7.75417e-17
      8516.00  7.63539e-17
      8518.00  7.36085e-17
      8520.00  7.05186e-17
      8522.00  7.03813e-17
      8524.00  7.34357e-17
      8526.00  7.48422e-17
      8528.00  7.58681e-17
      8530.00  7.63660e-17
      8532.00  7.59636e-17
      8534.00  7.43841e-17
      8536.00  7.32266e-17
      8538.00  7.16352e-17
      8540.00  7.04287e-17
      8542.00  7.00785e-17
      8544.00  7.04773e-17
      8546.00  7.06097e-17
      8548.00  7.12977e-17
      8550.00  7.12790e-17
      8552.00  7.01726e-17
      8554.00  6.82789e-17
      8556.00  6.70740e-17
      8558.00  6.51446e-17
      8560.00  6.49997e-17
      8562.00  6.73532e-17
      8564.00  7.06696e-17
      8566.00  7.12951e-17
      8568.00  6.98808e-17
      8570.00  6.90129e-17
      8572.00  6.76847e-17
      8574.00  6.66034e-17
      8576.00  6.67083e-17
      8578.00  6.87132e-17
      8580.00  6.84338e-17
      8582.00  6.60049e-17
      8584.00  6.42731e-17
      8586.00  6.47751e-17
      8588.00  6.70541e-17
      8590.00  6.81860e-17
      8592.00  6.96585e-17
      8594.00  7.01650e-17
      8596.00  6.90218e-17
      8598.00  6.66989e-17
      8600.00  6.67884e-17
      8602.00  6.85413e-17
      8604.00  7.02894e-17
      8606.00  7.29988e-17
      8608.00  7.56283e-17
      8610.00  7.50879e-17
      8612.00  7.02616e-17
      8614.00  6.85314e-17
      8616.00  6.85708e-17
      8618.00  6.92216e-17
      8620.00  6.95380e-17
      8622.00  7.11243e-17
      8624.00  6.97548e-17
      8626.00  6.48082e-17
      8628.00  6.10028e-17
      8630.00  6.06466e-17
      8632.00  6.27502e-17
      8634.00  6.43835e-17
      8636.00  6.83419e-17
      8638.00  6.98333e-17
      8640.00  6.72534e-17
      8642.00  6.19752e-17
      8644.00  6.12106e-17
      8646.00  6.37893e-17
      8648.00  6.53408e-17
      8650.00  6.69127e-17
      8652.00  6.79668e-17
      8654.00  6.63091e-17
      8656.00  5.97714e-17
      8658.00  5.79082e-17
      8660.00  5.93893e-17
      8662.00  6.18017e-17
      8664.00  6.28960e-17
      8666.00  6.34490e-17
      8668.00  6.46493e-17
      8670.00  6.69030e-17
      8672.00  6.83131e-17
      8674.00  6.77914e-17
      8676.00  6.54431e-17
      8678.00  6.50419e-17
      8680.00  6.56602e-17
      8682.00  6.63082e-17
      8684.00  6.72481e-17
      8686.00  6.84095e-17
      8688.00  6.75195e-17
      8690.00  6.37269e-17
      8692.00  6.19842e-17
      8694.00  6.22353e-17
      8696.00  6.33242e-17
      8698.00  6.34282e-17
      8700.00  6.28882e-17
      8702.00  6.30066e-17
      8704.00  6.35461e-17
      8706.00  6.42748e-17
      8708.00  6.50111e-17
      8710.00  6.60239e-17
      8712.00  6.66257e-17
      8714.00  6.70499e-17
      8716.00  6.72677e-17
      8718.00  6.71732e-17
      8720.00  6.66561e-17
      8722.00  6.68831e-17
      8724.00  6.78586e-17
      8726.00  6.84845e-17
      8728.00  6.87232e-17
      8730.00  6.87037e-17
      8732.00  6.81166e-17
      8734.00  6.72589e-17
      8736.00  6.56006e-17
      8738.00  6.25277e-17
      8740.00  5.91460e-17
      8742.00  5.78210e-17
      8744.00  5.71699e-17
      8746.00  5.84158e-17
      8748.00  6.26627e-17
      8750.00  6.69070e-17
      8752.00  6.84444e-17
      8754.00  6.91752e-17
      8756.00  6.69337e-17
      8758.00  5.93883e-17
      8760.00  5.39431e-17
      8762.00  5.33542e-17
      8764.00  5.56842e-17
      8766.00  6.11580e-17
      8768.00  7.48017e-17
      8770.00  8.27657e-17
      8772.00  8.34088e-17
      8774.00  7.92771e-17
      8776.00  7.46961e-17
      8778.00  6.42206e-17
      8780.00  5.90634e-17
      8782.00  5.88151e-17
      8784.00  6.09776e-17
      8786.00  6.19307e-17
      8788.00  6.39572e-17
      8790.00  6.46916e-17
      8792.00  6.46446e-17
      8794.00  6.41315e-17
      8796.00  6.32673e-17
      8798.00  6.08916e-17
      8800.00  6.14119e-17
      8802.00  6.51877e-17
      8804.00  6.78187e-17
      8806.00  6.73211e-17
      8808.00  6.44036e-17
      8810.00  6.39198e-17
      8812.00  6.38460e-17
      8814.00  6.50987e-17
      8816.00  6.84915e-17
      8818.00  7.32671e-17
      8820.00  7.49892e-17
      8822.00  7.69222e-17
      8824.00  7.43932e-17
      8826.00  6.54821e-17
      8828.00  5.47277e-17
      8830.00  5.05715e-17
      8832.00  4.94946e-17
      8834.00  5.12620e-17
      8836.00  5.84380e-17
      8838.00  6.56968e-17
      8840.00  6.84432e-17
      8842.00  6.83330e-17
      8844.00  6.81925e-17
      8846.00  6.62413e-17
      8848.00  6.46085e-17
      8850.00  6.40121e-17
      8852.00  6.39419e-17
      8854.00  6.42906e-17
      8856.00  6.58821e-17
      8858.00  6.65613e-17
      8860.00  6.59385e-17
      8862.00  6.45705e-17
      8864.00  6.41553e-17
      8866.00  6.36838e-17
      8868.00  6.42293e-17
      8870.00  6.58196e-17
      8872.00  6.80719e-17
      8874.00  7.03882e-17
      8876.00  7.48420e-17
      8878.00  7.56910e-17
      8880.00  7.41139e-17
      8882.00  7.11536e-17
      8884.00  6.72872e-17
      8886.00  6.01357e-17
      8888.00  5.86253e-17
      8890.00  6.15877e-17
      8892.00  6.46669e-17
      8894.00  6.64639e-17
      8896.00  6.79817e-17
      8898.00  6.96170e-17
      8900.00  7.03155e-17
      8902.00  7.25972e-17
      8904.00  7.81630e-17
      8906.00  8.51525e-17
      8908.00  8.47068e-17
      8910.00  7.63088e-17
      8912.00  7.15832e-17
      8914.00  6.82076e-17
      8916.00  6.63150e-17
      8918.00  6.73846e-17
      8920.00  7.36020e-17
      8922.00  7.60082e-17
      8924.00  7.67718e-17
      8926.00  7.69192e-17
      8928.00  7.71786e-17
      8930.00  7.71285e-17
      8932.00  7.69378e-17
      8934.00  7.65176e-17
      8936.00  7.59517e-17
      8938.00  7.48542e-17
      8940.00  7.29991e-17
      8942.00  7.44825e-17
      8944.00  8.03118e-17
      8946.00  8.37101e-17
      8948.00  8.41277e-17
      8950.00  8.28544e-17
      8952.00  8.22241e-17
      8954.00  8.20605e-17
      8956.00  8.02068e-17
      8958.00  7.56098e-17
      8960.00  7.08448e-17
      8962.00  7.01212e-17
      8964.00  7.40383e-17
      8966.00  7.48491e-17
      8968.00  7.45308e-17
      8970.00  7.38421e-17
      8972.00  7.32237e-17
      8974.00  7.19729e-17
      8976.00  7.21482e-17
      8978.00  7.42177e-17
      8980.00  7.52910e-17
      8982.00  7.36919e-17
      8984.00  6.97237e-17
      8986.00  7.18739e-17
      8988.00  8.15142e-17
      8990.00  8.64896e-17
      8992.00  8.61718e-17
      8994.00  8.26391e-17
      8996.00  7.88667e-17
      8998.00  7.06643e-17
      9000.00  6.71327e-17
      9002.00  6.73730e-17
      9004.00  6.96764e-17
      9006.00  7.20366e-17
      9008.00  7.68984e-17
      9010.00  7.92745e-17
      9012.00  8.12049e-17
      9014.00  8.15373e-17
      9016.00  7.89981e-17
      9018.00  7.19936e-17
      9020.00  7.08223e-17
      9022.00  7.40026e-17
      9024.00  7.66596e-17
      9026.00  7.70762e-17
      9028.00  7.61738e-17
      9030.00  7.83105e-17
      9032.00  8.38389e-17
      9034.00  8.74518e-17
      9036.00  8.88735e-17
      9038.00  8.90711e-17
      9040.00  8.96160e-17
      9042.00  9.03136e-17
      9044.00  8.99080e-17
      9046.00  8.83309e-17
      9048.00  8.61815e-17
      9050.00  8.42949e-17
      9052.00  8.20931e-17
      9054.00  8.02410e-17
      9056.00  7.80107e-17
      9058.00  7.65699e-17
      9060.00  7.68533e-17
      9062.00  7.90490e-17
      9064.00  7.99067e-17
      9066.00  8.04199e-17
      9068.00  8.08035e-17
      9070.00  8.09777e-17
      9072.00  8.08776e-17
      9074.00  8.16645e-17
      9076.00  8.42423e-17
      9078.00  8.49140e-17
      9080.00  8.27894e-17
      9082.00  7.93886e-17
      9084.00  7.93118e-17
      9086.00  8.21908e-17
      9088.00  8.36948e-17
      9090.00  8.43566e-17
      9092.00  8.49179e-17
      9094.00  8.61832e-17
      9096.00  8.86149e-17
      9098.00  8.95510e-17
      9100.00  8.93462e-17
      9102.00  8.90773e-17
      9104.00  8.94955e-17
      9106.00  9.04537e-17
      9108.00  9.06558e-17
      9110.00  9.02766e-17
      9112.00  8.99753e-17
      9114.00  8.99051e-17
      9116.00  8.99334e-17
      9118.00  8.99907e-17
      9120.00  9.01849e-17
      9122.00  9.02822e-17
      9124.00  9.03265e-17
      9126.00  9.02990e-17
      9128.00  9.00299e-17
      9130.00  8.92912e-17
      9132.00  8.89762e-17
      9134.00  8.92589e-17
      9136.00  8.94476e-17
      9138.00  8.86150e-17
      9140.00  8.68640e-17
      9142.00  8.52346e-17
      9144.00  8.29188e-17
      9146.00  8.10143e-17
      9148.00  8.03180e-17
      9150.00  8.08772e-17
      9152.00  8.02430e-17
      9154.00  7.80405e-17
      9156.00  7.73526e-17
      9158.00  7.92325e-17
      9160.00  8.30583e-17
      9162.00  8.53078e-17
      9164.00  8.69907e-17
      9166.00  8.88391e-17
      9168.00  9.10024e-17
      9170.00  9.31810e-17
      9172.00  9.45677e-17
      9174.00  9.52161e-17
      9176.00  9.59367e-17
      9178.00  9.70061e-17
      9180.00  9.75548e-17
      9182.00  9.64376e-17
      9184.00  9.33512e-17
      9186.00  9.10574e-17
      9188.00  8.80599e-17
      9190.00  8.58003e-17
      9192.00  8.52890e-17
      9194.00  8.65631e-17
      9196.00  8.64878e-17
      9198.00  8.63140e-17
      9200.00  8.55222e-17
      9202.00  8.34059e-17
      9204.00  8.01496e-17
      9206.00  8.05946e-17
      9208.00  8.55875e-17
      9210.00  8.77446e-17
      9212.00  8.65277e-17
      9214.00  8.38637e-17
      9216.00  8.37779e-17
      9218.00  8.56535e-17
      9220.00  8.64689e-17
      9222.00  8.77693e-17
      9224.00  8.79546e-17
      9226.00  8.46773e-17
      9228.00  7.41763e-17
      9230.00  7.29320e-17
      9232.00  7.86166e-17
      9234.00  8.45790e-17
      9236.00  8.70085e-17
      9238.00  8.76562e-17
      9240.00  8.90750e-17
      9242.00  9.05875e-17
      9244.00  9.17183e-17
      9246.00  9.25041e-17
      9248.00  9.30049e-17
      9250.00  9.23185e-17
      9252.00  8.98182e-17
      9254.00  8.82287e-17
      9256.00  8.68065e-17
      9258.00  8.60538e-17
      9260.00  8.83841e-17
      9262.00  9.71672e-17
      9264.00  9.91139e-17
      9266.00  9.57420e-17
      9268.00  9.02854e-17
      9270.00  8.60244e-17
      9272.00  7.81392e-17
      9274.00  7.80436e-17
      9276.00  8.59933e-17
      9278.00  9.29570e-17
      9280.00  9.39519e-17
      9282.00  9.11965e-17
      9284.00  8.88237e-17
      9286.00  8.35129e-17
      9288.00  8.03213e-17
      9290.00  8.03882e-17
      9292.00  8.27049e-17
      9294.00  8.46268e-17
      9296.00  9.10327e-17
      9298.00  9.07079e-17
      9300.00  8.17421e-17
      9302.00  6.89159e-17
      9304.00  6.33924e-17
      9306.00  6.11288e-17
      9308.00  6.06738e-17
      9310.00  6.54276e-17
      9312.00  6.94162e-17
      9314.00  6.52607e-17
      9316.00  4.98597e-17
      9318.00  4.63866e-17
      9320.00  5.05298e-17
      9322.00  5.51154e-17
      9324.00  5.59016e-17
      9326.00  5.36423e-17
      9328.00  5.85621e-17
      9330.00  7.25585e-17
      9332.00  8.14536e-17
      9334.00  8.24678e-17
      9336.00  7.83511e-17
      9338.00  7.48469e-17
      9340.00  6.64013e-17
      9342.00  6.29320e-17
      9344.00  6.53828e-17
      9346.00  7.03789e-17
      9348.00  7.09077e-17
      9350.00  6.72622e-17
      9352.00  6.73449e-17
      9354.00  7.02216e-17
      9356.00  7.38043e-17
      9358.00  7.63601e-17
      9360.00  8.47673e-17
      9362.00  7.72564e-17
      9364.00  5.36201e-17
      9366.00  3.07971e-17
      9368.00  1.59520e-17
      9370.00  2.56338e-18
      9372.00  2.37392e-18
      9374.00  1.51111e-17
      9376.00  3.08767e-17
      9378.00  5.07480e-17
      9380.00  7.52729e-17
      9382.00  8.85366e-17
      9384.00  9.53377e-17
      9386.00  9.87736e-17
      9388.00  9.65167e-17
      9390.00  9.12728e-17
      9392.00  9.08736e-17
      9394.00  9.24342e-17
      9396.00  9.49462e-17
      9398.00  1.01010e-16
      9400.00  1.05913e-16
      9402.00  1.04297e-16
      9404.00  9.45618e-17
      9406.00  9.20006e-17
      9408.00  9.14929e-17
      9410.00  9.35862e-17
      9412.00  1.00008e-16
      9414.00  1.13059e-16
      9416.00  1.12501e-16
      9418.00  1.01612e-16
      9420.00  9.01153e-17
      9422.00  7.70270e-17
      9424.00  6.19113e-17
      9426.00  5.84367e-17
      9428.00  6.64395e-17
      9430.00  7.16908e-17
      9432.00  7.60858e-17
      9434.00  8.01225e-17
      9436.00  8.21915e-17
      9438.00  8.09751e-17
      9440.00  8.26289e-17
      9442.00  8.70055e-17
      9444.00  9.11179e-17
      9446.00  9.23005e-17
      9448.00  9.48544e-17
      9450.00  8.75357e-17
      9452.00  6.49689e-17
      9454.00  4.87655e-17
      9456.00  4.98773e-17
      9458.00  6.49563e-17
      9460.00  7.04998e-17
      9462.00  7.28897e-17
      9464.00  7.66498e-17
      9466.00  8.41096e-17
      9468.00  9.33938e-17
      9470.00  9.22894e-17
      9472.00  8.31492e-17
      9474.00  7.23767e-17
      9476.00  5.41242e-17
      9478.00  3.57478e-17
      9480.00  3.57602e-17
      9482.00  5.51149e-17
      9484.00  6.68528e-17
      9486.00  8.09264e-17
      9488.00  9.16933e-17
      9490.00  9.24117e-17
      9492.00  7.89985e-17
      9494.00  7.96737e-17
      9496.00  9.09601e-17
      9498.00  9.92648e-17
      9500.00  9.84155e-17
      9502.00  9.11264e-17
      9504.00  8.64936e-17
      9506.00  7.97091e-17
      9508.00  7.52870e-17
      9510.00  7.36229e-17
      9512.00  7.40219e-17
      9514.00  7.63202e-17
      9516.00  8.29261e-17
      9518.00  8.69737e-17
      9520.00  8.98534e-17
      9522.00  9.11979e-17
      9524.00  8.90645e-17
      9526.00  8.23636e-17
      9528.00  7.70468e-17
      9530.00  7.03952e-17
      9532.00  6.46892e-17
      9534.00  6.21931e-17
      9536.00  6.21097e-17
      9538.00  6.31602e-17
      9540.00  6.68150e-17
      9542.00  7.04951e-17
      9544.00  7.37020e-17
      9546.00  7.76326e-17
      9548.00  7.66226e-17
      9550.00  7.04214e-17
      9552.00  6.50236e-17
      9554.00  6.05077e-17
      9556.00  5.62540e-17
      9558.00  5.42574e-17
      9560.00  5.70691e-17
      9562.00  5.49904e-17
      9564.00  4.64385e-17
      9566.00  3.66552e-17
      9568.00  3.53123e-17
      9570.00  3.92259e-17
      9572.00  4.55803e-17
      9574.00  5.75071e-17
      9576.00  7.00595e-17
      9578.00  7.89099e-17
      9580.00  8.72639e-17
      9582.00  9.10259e-17
      9584.00  9.16126e-17
      9586.00  8.88063e-17
      9588.00  8.10168e-17
      9590.00  6.68705e-17
      9592.00  6.35827e-17
      9594.00  6.72400e-17
      9596.00  7.22056e-17
      9598.00  8.00955e-17
      9600.00  9.01297e-17
      9602.00  9.10805e-17
      9604.00  8.43481e-17
      9606.00  7.83348e-17
      9608.00  7.02925e-17
      9610.00  6.22387e-17
      9612.00  5.93491e-17
      9614.00  6.01760e-17
      9616.00  6.23482e-17
      9618.00  6.77121e-17
      9620.00  7.37683e-17
      9622.00  7.84899e-17
      9624.00  8.38790e-17
      9626.00  8.59862e-17
      9628.00  8.51770e-17
      9630.00  8.37258e-17
      9632.00  8.21620e-17
      9634.00  7.97434e-17
      9636.00  7.90245e-17
      9638.00  7.91744e-17
      9640.00  8.00276e-17
      9642.00  8.20336e-17
      9644.00  8.48156e-17
      9646.00  8.57974e-17
      9648.00  8.61450e-17
      9650.00  8.53087e-17
      9652.00  8.19729e-17
      9654.00  7.85039e-17
      9656.00  7.93546e-17
      9658.00  8.48409e-17
      9660.00  8.79370e-17
      9662.00  9.06715e-17
      9664.00  9.30452e-17
      9666.00  9.52431e-17
      9668.00  9.88658e-17
      9670.00  9.68369e-17
      9672.00  9.00530e-17
      9674.00  8.20347e-17
      9676.00  7.30733e-17
      9678.00  6.17982e-17
      9680.00  5.67798e-17
      9682.00  5.61984e-17
      9684.00  5.67973e-17
      9686.00  5.75007e-17
      9688.00  5.96457e-17
      9690.00  6.85756e-17
      9692.00  8.90398e-17
      9694.00  1.00849e-16
      9696.00  1.07266e-16
      9698.00  1.09342e-16
      9700.00  1.06799e-16
      9702.00  9.71852e-17
      9704.00  8.86506e-17
      9706.00  7.67889e-17
      9708.00  6.59685e-17
      9710.00  5.96739e-17
      9712.00  5.63465e-17
      9714.00  5.48487e-17
      9716.00  5.45250e-17
      9718.00  5.79514e-17
      9720.00  6.78822e-17
      9722.00  8.47677e-17
      9724.00  8.85978e-17
      9726.00  8.29901e-17
      9728.00  7.74117e-17
      9730.00  7.12435e-17
      9732.00  6.40692e-17
      9734.00  6.00350e-17
      9736.00  5.70440e-17
      9738.00  5.65918e-17
      9740.00  5.96431e-17
      9742.00  6.40128e-17
      9744.00  6.60714e-17
      9746.00  6.78007e-17
      9748.00  6.79258e-17
      9750.00  6.66175e-17
      9752.00  6.43376e-17
      9754.00  6.11939e-17
      9756.00  5.58478e-17
      9758.00  5.39128e-17
      9760.00  5.33585e-17
      9762.00  5.46483e-17
      9764.00  5.90732e-17
      9766.00  6.69939e-17
      9768.00  6.71893e-17
      9770.00  6.03585e-17
      9772.00  5.55753e-17
      9774.00  5.35092e-17
      9776.00  5.24143e-17
      9778.00  4.91160e-17
      9780.00  4.48601e-17
      9782.00  3.95951e-17
      9784.00  3.05611e-17
      9786.00  2.26436e-17
      9788.00  2.38741e-17
      9790.00  3.38228e-17
      9792.00  4.26058e-17
      9794.00  5.57467e-17
      9796.00  6.76697e-17
      9798.00  7.44157e-17
      9800.00  7.81395e-17
      9802.00  7.87511e-17
      9804.00  7.47046e-17
      9806.00  6.99968e-17
      9808.00  6.46100e-17
      9810.00  5.73864e-17
      9812.00  5.80636e-17
      9814.00  6.72865e-17
      9816.00  7.36106e-17
      9818.00  7.72820e-17
      9820.00  7.94478e-17
      9822.00  7.92440e-17
      9824.00  7.46816e-17
      9826.00  7.27494e-17
      9828.00  7.28097e-17
      9830.00  7.33740e-17
      9832.00  7.26590e-17
      9834.00  7.00348e-17
      9836.00  7.00470e-17
      9838.00  7.35091e-17
      9840.00  7.54634e-17
      9842.00  7.23439e-17
      9844.00  6.50287e-17
      9846.00  5.84792e-17
      9848.00  4.69256e-17
      9850.00  4.08965e-17
      9852.00  4.48288e-17
      9854.00  5.68489e-17
      9856.00  5.99060e-17
      9858.00  6.10752e-17
      9860.00  5.75699e-17
      9862.00  4.67618e-17
      9864.00  3.20245e-17
      9866.00  2.62208e-17
      9868.00  2.31579e-17
      9870.00  2.63225e-17
      9872.00  3.84656e-17
      9874.00  5.32010e-17
      9876.00  6.12396e-17
      9878.00  6.77170e-17
      9880.00  6.94574e-17
      9882.00  6.27552e-17
      9884.00  5.82018e-17
      9886.00  6.38930e-17
      9888.00  8.08196e-17
      9890.00  8.28991e-17
      9892.00  7.37215e-17
      9894.00  6.63392e-17
      9896.00  6.35792e-17
      9898.00  6.27941e-17
      9900.00  6.46445e-17
      9902.00  6.98219e-17
      9904.00  7.57137e-17
      9906.00  8.37130e-17
      9908.00  9.25340e-17
      9910.00  9.60458e-17
      9912.00  1.00885e-16
      9914.00  9.42712e-17
      9916.00  6.85282e-17
      9918.00  4.31105e-17
      9920.00  4.51238e-17
      9922.00  8.05740e-17
      9924.00  8.96203e-17
      9926.00  8.42902e-17
      9928.00  7.98703e-17
      9930.00  8.61296e-17
      9932.00  9.91684e-17
      9934.00  1.11034e-16
      9936.00  1.30863e-16
      9938.00  1.41920e-16
      9940.00  1.39589e-16
      9942.00  1.27189e-16
      9944.00  1.14503e-16
      9946.00  8.77695e-17
      9948.00  7.59462e-17
      9950.00  8.27372e-17
