# SIMPLE = T / Written by IDL: Thu Nov 8 11:01:09 2012 
# BITPIX = -32 / IEEE single precision floating point 
# NAXIS = 1 / Number of axes 
# NAXIS1 = 3376 / 
# EXTEND = T / File may contain extensions 
# ORIGIN = 'NOAO-IRAF FITS Image Kernel July 2003' / FITS file originator 
# DATE = '2012-11-08T07:22:11' / Date FITS file was generated 
# IRAF-TLM= '2012-11-08T07:22:11' / Time of last modification 
# COMMENT FITS (Flexible Image Transport System) format defined in Astronomy and
# COMMENT Astrophysics Supplement Series v44/p363, v44/p371, v73/p359, v73/p365.
# COMMENT Contact the NASA Science Office of Standards and Technology for the 
# COMMENT FITS Definition document #100 and other FITS information. 
# OBJECT = 'PTF12kta' / object title 
# IMGTYPE = 'object ' / observation type 
# GAIN = 2. / e-/adu 
# RON = 7.5 / electrons 
# DICHROIC= 'D55 ' / Dichroic 
# APERTURE= '1.5 ' / aperture (arcsecs) 
# TURRET = 'APERTURE' / turret position 
# LAMPS = '0000000 ' / lamps: D-FeAr-Hg-Ar-Ne-He-InCand 
# RFILTER = 'OPEN ' / filter wheel 
# OEXPTIME= 1200. / originaly req. exposure time 
# EXPTIME = 1200. / actual exposure time 
# UTSHUT = '2012-11-07T12:43:49.686' / UT shutter open 
# NAMPSXY = '1 1 ' / number of amplifiers in y x 
# CCDSUM = '1 1 ' / binning in x y 
# ASEC1 = '[1:1124,1:300]' / amplifier section 1(LL) 
# BSEC1 = '[1075:1124,1:300]' / bias section 1(LL) 
# CSEC1 = '[1:1074,1:300]' / ccd section 1(LL) 
# DSEC1 = '[1:1074,1:300]' / data section 1(LL) 
# TSEC1 = '[51:1074,1:300]' / trim section 1(LL) 
# ROISEC = '[1:1024,305:604]' / roi section 
# DETID = 'Site424_1' / detector ID 
# DETNUM = '1 ' / Detector Number 
# DETNAM = 'Site424 ' / detector name 
# FPA = 'DBSP_RED' / focal plan array 
# UTC = '312 12:43:49.8' / <elapsed days> <time-obs> 
# UT = '12:43:49.8' / time-obs 
# OBSLST = '08:04:52.0' / lst-obs 
# RA = '07:13:04.63' / Right Ascencion 
# DEC = '+56:39:38.7' / Declination 
# HOURANG = 'W00:50:41.2' / Hour angle, TCS format 
# HA = '+00:50:41.2' / Hour angle 
# AIRMASS = '1.108884' / Airmass 
# TELID = '200 ' / telescope ID 
# TELFOCUS= '40.90 mm' / focus position 
# CASSPA = '150.00 ' / cass ring angle 
# PARALLAC= '154.14 ' / parallactic angle 
# DHE = 'CCD8 Palomar Camera controller' / detector controller 
# CCDTEMP = '153.00 ' / ccd temp (k) 
# GCOMMENT= ' ' / comment 
# SOFTVER = '3.4 ' / software version 
# HDR_REV = '3.9 ' / gfits version 
# GRATING = '158/7500' / lines/mm-blaze 
# ANGLE = '20.983 deg' / Grating Angle 
# OBSNUM = 77 
# DATE-OBS= '2012-11-07' 
# OBSERVAT= 'palomar ' 
# TIME = '12:43:49.8' 
# OPT_PA = 149.51299508115 
# TELESCOP= 'P200 ' 
# ST = '8:04:51.33' 
# EPOCH = 2012.85155492821 
# UTMIDDLE= '2012-11-07T12:53:49.80' 
# BANDID1 = 'spectrum - background fit, weights variance, clean yes' 
# BANDID2 = 'raw - background fit, weights none, clean no' 
# BANDID3 = 'background - background fit' 
# BANDID4 = 'sigma - background fit, weights variance, clean yes' 
# APNUM1 = '1 1 83.97 93.97' 
# CRVAL1 = 3200.00 / 
# CRPIX1 = 1 / 
# DC-FLAG = 0 
# DCLOG1 = 'REFSPEC1 = arc_redc.ms' 
# FLUX_Z = 1.06134400000 / 
# FLUX_NUM= 66 / 
# FLUX_OBJ= 'G191B2B ' / 
# OBS_PA = 150.000000000 /observed position angle 
# CDELT1 = 2.00000 / 
# CTYPE1 = 'LINEAR ' / 
# W_RANGE = '5200 9950' / 
# BSTAR_Z = 1.06134400000 / 
# BSTARNUM= 66 / 
# BSTAROBJ= 'G191B2B ' / 
# BARYVEL = -11.6952234672 / 
# SKYSHIFT= -1.46638700984 / 
# ATMSHIFT= 0.488776602254 / 
# EXTRACT = 'optimal ' / 
# REDUCER = 'admin ' / 
# RED_DATE= 'Thu Nov 8 11:01:09 2012' /EPOCH OF REDUCTION 
# END 
# 
      3200.00  7.58736e-17
      3202.00  1.22966e-16
      3204.00  1.76939e-16
      3206.00  1.49750e-16
      3208.00  1.02007e-16
      3210.00  1.90131e-16
      3212.00  1.32062e-16
      3214.00  1.76138e-16
      3216.00  1.16478e-16
      3218.00  1.74100e-16
      3220.00  1.76423e-16
      3222.00  1.82579e-16
      3224.00  1.80492e-16
      3226.00  1.69735e-16
      3228.00  1.36466e-16
      3230.00  1.34582e-16
      3232.00  1.29930e-16
      3234.00  1.55193e-16
      3236.00  1.48662e-16
      3238.00  1.22991e-16
      3240.00  1.56766e-16
      3242.00  1.05119e-16
      3244.00  1.27240e-16
      3246.00  1.50069e-16
      3248.00  1.19916e-16
      3250.00  1.07825e-16
      3252.00  1.97903e-16
      3254.00  1.17049e-16
      3256.00  1.02482e-16
      3258.00  5.54462e-17
      3260.00  1.23872e-16
      3262.00  1.19735e-16
      3264.00  1.35220e-16
      3266.00  1.45205e-16
      3268.00  1.53603e-16
      3270.00  6.17197e-17
      3272.00  7.80165e-17
      3274.00  9.34644e-17
      3276.00  1.12727e-16
      3278.00  7.48134e-17
      3280.00  9.72831e-17
      3282.00  9.94157e-17
      3284.00  1.10183e-16
      3286.00  7.22501e-17
      3288.00  8.78743e-17
      3290.00  8.69919e-17
      3292.00  1.15325e-16
      3294.00  8.14969e-17
      3296.00  1.03994e-16
      3298.00  8.46016e-17
      3300.00  7.10754e-17
      3302.00  1.30686e-16
      3304.00  1.67860e-16
      3306.00  1.24535e-16
      3308.00  1.29726e-16
      3310.00  1.81085e-16
      3312.00  1.57422e-16
      3314.00  1.27699e-16
      3316.00  1.16139e-16
      3318.00  9.16190e-17
      3320.00  1.36880e-16
      3322.00  1.22606e-16
      3324.00  1.33101e-16
      3326.00  1.48741e-16
      3328.00  1.13398e-16
      3330.00  8.62492e-17
      3332.00  9.08788e-17
      3334.00  1.54212e-16
      3336.00  1.24501e-16
      3338.00  1.30707e-16
      3340.00  1.02380e-16
      3342.00  1.19141e-16
      3344.00  1.47072e-16
      3346.00  1.16697e-16
      3348.00  1.18774e-16
      3350.00  1.21470e-16
      3352.00  9.33824e-17
      3354.00  1.52790e-16
      3356.00  9.38062e-17
      3358.00  1.02614e-16
      3360.00  9.41140e-17
      3362.00  1.25761e-16
      3364.00  1.01661e-16
      3366.00  1.21347e-16
      3368.00  1.27208e-16
      3370.00  1.63020e-16
      3372.00  1.56554e-16
      3374.00  1.45530e-16
      3376.00  1.12878e-16
      3378.00  1.47645e-16
      3380.00  1.45338e-16
      3382.00  1.83429e-16
      3384.00  1.30756e-16
      3386.00  1.34090e-16
      3388.00  1.43964e-16
      3390.00  1.50001e-16
      3392.00  1.64666e-16
      3394.00  1.55555e-16
      3396.00  1.79514e-16
      3398.00  1.33534e-16
      3400.00  1.39508e-16
      3402.00  1.57812e-16
      3404.00  1.15716e-16
      3406.00  1.33882e-16
      3408.00  1.50969e-16
      3410.00  1.32795e-16
      3412.00  1.46719e-16
      3414.00  1.71295e-16
      3416.00  1.71861e-16
      3418.00  1.18197e-16
      3420.00  1.25332e-16
      3422.00  1.33733e-16
      3424.00  1.29429e-16
      3426.00  1.29312e-16
      3428.00  1.33226e-16
      3430.00  1.24351e-16
      3432.00  1.36102e-16
      3434.00  1.19813e-16
      3436.00  1.39649e-16
      3438.00  1.23243e-16
      3440.00  1.45956e-16
      3442.00  1.85842e-16
      3444.00  1.44400e-16
      3446.00  1.65904e-16
      3448.00  1.38056e-16
      3450.00  1.36351e-16
      3452.00  1.40999e-16
      3454.00  1.24400e-16
      3456.00  1.19682e-16
      3458.00  1.42918e-16
      3460.00  1.31000e-16
      3462.00  1.40593e-16
      3464.00  1.52647e-16
      3466.00  1.42233e-16
      3468.00  1.32764e-16
      3470.00  1.26287e-16
      3472.00  1.29531e-16
      3474.00  1.31067e-16
      3476.00  1.13342e-16
      3478.00  1.00810e-16
      3480.00  1.44587e-16
      3482.00  1.54698e-16
      3484.00  1.40486e-16
      3486.00  1.34804e-16
      3488.00  1.48344e-16
      3490.00  1.32671e-16
      3492.00  1.38835e-16
      3494.00  1.40688e-16
      3496.00  1.18554e-16
      3498.00  1.55838e-16
      3500.00  1.54336e-16
      3502.00  1.46147e-16
      3504.00  1.43274e-16
      3506.00  1.29792e-16
      3508.00  1.31959e-16
      3510.00  1.29890e-16
      3512.00  1.33860e-16
      3514.00  1.16247e-16
      3516.00  1.26089e-16
      3518.00  1.37399e-16
      3520.00  1.58367e-16
      3522.00  1.45835e-16
      3524.00  1.28717e-16
      3526.00  1.23950e-16
      3528.00  1.21469e-16
      3530.00  1.07517e-16
      3532.00  1.15833e-16
      3534.00  1.06321e-16
      3536.00  1.00103e-16
      3538.00  1.24650e-16
      3540.00  1.34219e-16
      3542.00  1.54065e-16
      3544.00  1.35067e-16
      3546.00  1.48765e-16
      3548.00  1.21725e-16
      3550.00  1.28705e-16
      3552.00  1.34791e-16
      3554.00  1.59611e-16
      3556.00  1.36138e-16
      3558.00  1.48936e-16
      3560.00  1.51226e-16
      3562.00  1.60785e-16
      3564.00  1.68972e-16
      3566.00  1.44185e-16
      3568.00  1.36094e-16
      3570.00  1.47068e-16
      3572.00  1.48297e-16
      3574.00  1.45147e-16
      3576.00  1.41213e-16
      3578.00  1.44670e-16
      3580.00  1.46562e-16
      3582.00  1.68072e-16
      3584.00  1.56551e-16
      3586.00  1.38115e-16
      3588.00  1.48255e-16
      3590.00  1.67794e-16
      3592.00  1.63394e-16
      3594.00  1.38562e-16
      3596.00  1.38857e-16
      3598.00  1.44145e-16
      3600.00  1.52305e-16
      3602.00  1.47421e-16
      3604.00  1.56439e-16
      3606.00  1.54049e-16
      3608.00  1.47678e-16
      3610.00  1.67647e-16
      3612.00  1.46197e-16
      3614.00  1.65833e-16
      3616.00  1.49332e-16
      3618.00  1.73063e-16
      3620.00  1.63813e-16
      3622.00  1.73600e-16
      3624.00  1.55459e-16
      3626.00  1.78000e-16
      3628.00  1.78907e-16
      3630.00  1.60015e-16
      3632.00  1.89256e-16
      3634.00  1.66637e-16
      3636.00  1.68479e-16
      3638.00  1.89319e-16
      3640.00  1.95857e-16
      3642.00  2.03895e-16
      3644.00  2.01140e-16
      3646.00  1.92438e-16
      3648.00  2.23264e-16
      3650.00  2.14429e-16
      3652.00  2.04005e-16
      3654.00  1.92221e-16
      3656.00  2.04787e-16
      3658.00  1.80682e-16
      3660.00  1.97541e-16
      3662.00  1.96144e-16
      3664.00  2.05790e-16
      3666.00  1.90275e-16
      3668.00  1.84662e-16
      3670.00  1.63662e-16
      3672.00  1.74293e-16
      3674.00  1.70372e-16
      3676.00  1.74838e-16
      3678.00  1.61042e-16
      3680.00  1.58466e-16
      3682.00  1.64283e-16
      3684.00  1.82088e-16
      3686.00  1.65339e-16
      3688.00  1.60142e-16
      3690.00  1.65920e-16
      3692.00  1.83133e-16
      3694.00  1.84031e-16
      3696.00  1.85055e-16
      3698.00  1.70960e-16
      3700.00  1.68707e-16
      3702.00  1.57746e-16
      3704.00  1.81381e-16
      3706.00  1.56630e-16
      3708.00  1.66322e-16
      3710.00  1.74630e-16
      3712.00  1.91451e-16
      3714.00  1.98742e-16
      3716.00  1.92804e-16
      3718.00  1.86227e-16
      3720.00  1.91436e-16
      3722.00  1.88062e-16
      3724.00  1.86852e-16
      3726.00  1.78321e-16
      3728.00  1.79233e-16
      3730.00  1.77947e-16
      3732.00  1.91414e-16
      3734.00  2.13533e-16
      3736.00  2.02076e-16
      3738.00  1.91906e-16
      3740.00  1.91128e-16
      3742.00  1.79908e-16
      3744.00  1.96741e-16
      3746.00  1.99165e-16
      3748.00  1.97954e-16
      3750.00  1.96289e-16
      3752.00  1.92065e-16
      3754.00  2.13068e-16
      3756.00  1.92653e-16
      3758.00  1.93604e-16
      3760.00  1.84666e-16
      3762.00  2.04159e-16
      3764.00  1.78318e-16
      3766.00  1.98383e-16
      3768.00  1.89812e-16
      3770.00  1.94808e-16
      3772.00  1.92645e-16
      3774.00  2.10036e-16
      3776.00  1.79352e-16
      3778.00  1.86110e-16
      3780.00  1.85963e-16
      3782.00  1.84036e-16
      3784.00  1.74271e-16
      3786.00  1.69324e-16
      3788.00  1.72180e-16
      3790.00  1.74831e-16
      3792.00  1.89924e-16
      3794.00  1.76073e-16
      3796.00  1.85046e-16
      3798.00  1.78041e-16
      3800.00  1.73229e-16
      3802.00  1.68844e-16
      3804.00  1.83646e-16
      3806.00  1.98059e-16
      3808.00  1.91103e-16
      3810.00  1.86277e-16
      3812.00  1.86461e-16
      3814.00  1.79899e-16
      3816.00  1.75062e-16
      3818.00  1.70924e-16
      3820.00  1.80926e-16
      3822.00  1.79475e-16
      3824.00  1.87619e-16
      3826.00  1.78900e-16
      3828.00  1.87695e-16
      3830.00  1.88367e-16
      3832.00  1.86906e-16
      3834.00  1.92011e-16
      3836.00  1.95480e-16
      3838.00  1.79263e-16
      3840.00  1.78282e-16
      3842.00  1.92456e-16
      3844.00  1.85655e-16
      3846.00  1.65868e-16
      3848.00  1.66966e-16
      3850.00  1.66917e-16
      3852.00  1.77217e-16
      3854.00  1.74922e-16
      3856.00  1.97808e-16
      3858.00  1.93458e-16
      3860.00  1.98402e-16
      3862.00  1.88565e-16
      3864.00  2.03938e-16
      3866.00  1.76103e-16
      3868.00  1.97467e-16
      3870.00  2.03434e-16
      3872.00  1.94355e-16
      3874.00  1.97142e-16
      3876.00  2.00885e-16
      3878.00  2.00211e-16
      3880.00  1.90761e-16
      3882.00  1.83925e-16
      3884.00  2.00530e-16
      3886.00  1.97762e-16
      3888.00  2.00265e-16
      3890.00  2.02917e-16
      3892.00  1.87669e-16
      3894.00  1.90889e-16
      3896.00  1.84305e-16
      3898.00  1.81605e-16
      3900.00  1.75926e-16
      3902.00  1.77881e-16
      3904.00  1.75206e-16
      3906.00  1.56382e-16
      3908.00  1.67628e-16
      3910.00  1.59761e-16
      3912.00  1.64207e-16
      3914.00  1.61611e-16
      3916.00  1.54241e-16
      3918.00  1.64434e-16
      3920.00  1.53663e-16
      3922.00  1.75601e-16
      3924.00  1.58017e-16
      3926.00  1.62723e-16
      3928.00  1.75958e-16
      3930.00  1.79707e-16
      3932.00  1.63985e-16
      3934.00  1.53962e-16
      3936.00  1.52720e-16
      3938.00  1.39644e-16
      3940.00  1.33584e-16
      3942.00  1.34203e-16
      3944.00  1.56061e-16
      3946.00  1.45733e-16
      3948.00  1.47822e-16
      3950.00  1.32880e-16
      3952.00  1.42690e-16
      3954.00  1.37916e-16
      3956.00  1.36281e-16
      3958.00  1.50663e-16
      3960.00  1.35910e-16
      3962.00  1.42933e-16
      3964.00  1.44240e-16
      3966.00  1.30309e-16
      3968.00  1.16077e-16
      3970.00  1.20967e-16
      3972.00  1.32948e-16
      3974.00  1.27631e-16
      3976.00  1.34749e-16
      3978.00  1.28817e-16
      3980.00  1.17608e-16
      3982.00  1.11679e-16
      3984.00  1.21035e-16
      3986.00  1.27789e-16
      3988.00  1.17658e-16
      3990.00  1.32410e-16
      3992.00  1.29014e-16
      3994.00  1.45358e-16
      3996.00  1.20524e-16
      3998.00  1.41723e-16
      4000.00  1.39691e-16
      4002.00  1.39629e-16
      4004.00  1.42526e-16
      4006.00  1.31197e-16
      4008.00  1.27471e-16
      4010.00  1.22577e-16
      4012.00  1.28918e-16
      4014.00  1.23147e-16
      4016.00  1.17310e-16
      4018.00  1.23754e-16
      4020.00  1.19170e-16
      4022.00  1.13066e-16
      4024.00  1.15423e-16
      4026.00  1.18661e-16
      4028.00  1.02608e-16
      4030.00  1.19143e-16
      4032.00  1.24727e-16
      4034.00  1.34417e-16
      4036.00  1.30819e-16
      4038.00  1.19901e-16
      4040.00  1.33720e-16
      4042.00  1.35367e-16
      4044.00  1.15427e-16
      4046.00  1.12145e-16
      4048.00  1.06214e-16
      4050.00  1.16437e-16
      4052.00  1.23727e-16
      4054.00  1.36486e-16
      4056.00  1.35102e-16
      4058.00  1.22917e-16
      4060.00  1.25120e-16
      4062.00  1.23691e-16
      4064.00  1.12322e-16
      4066.00  1.18577e-16
      4068.00  1.48594e-16
      4070.00  1.66218e-16
      4072.00  1.67347e-16
      4074.00  1.67381e-16
      4076.00  1.42662e-16
      4078.00  1.30747e-16
      4080.00  1.27771e-16
      4082.00  1.37605e-16
      4084.00  1.48064e-16
      4086.00  1.51099e-16
      4088.00  1.50746e-16
      4090.00  1.48848e-16
      4092.00  1.40007e-16
      4094.00  1.39674e-16
      4096.00  1.44777e-16
      4098.00  1.64535e-16
      4100.00  1.47148e-16
      4102.00  1.45584e-16
      4104.00  1.51064e-16
      4106.00  1.53899e-16
      4108.00  1.60551e-16
      4110.00  1.45486e-16
      4112.00  1.59641e-16
      4114.00  1.36526e-16
      4116.00  1.56093e-16
      4118.00  1.55412e-16
      4120.00  1.57292e-16
      4122.00  1.68463e-16
      4124.00  1.64014e-16
      4126.00  1.66890e-16
      4128.00  1.65240e-16
      4130.00  1.81306e-16
      4132.00  1.71073e-16
      4134.00  1.52918e-16
      4136.00  1.56329e-16
      4138.00  1.52110e-16
      4140.00  1.47894e-16
      4142.00  1.61255e-16
      4144.00  1.37700e-16
      4146.00  1.41915e-16
      4148.00  1.44095e-16
      4150.00  1.42274e-16
      4152.00  1.57183e-16
      4154.00  1.51873e-16
      4156.00  1.52000e-16
      4158.00  1.62988e-16
      4160.00  1.70364e-16
      4162.00  1.55332e-16
      4164.00  1.69077e-16
      4166.00  1.43455e-16
      4168.00  1.48971e-16
      4170.00  1.58091e-16
      4172.00  1.63397e-16
      4174.00  1.45785e-16
      4176.00  1.60380e-16
      4178.00  1.52467e-16
      4180.00  1.42469e-16
      4182.00  1.41803e-16
      4184.00  1.57918e-16
      4186.00  1.47096e-16
      4188.00  1.50112e-16
      4190.00  1.52262e-16
      4192.00  1.57592e-16
      4194.00  1.63635e-16
      4196.00  1.76525e-16
      4198.00  1.75394e-16
      4200.00  1.79542e-16
      4202.00  1.72888e-16
      4204.00  1.90879e-16
      4206.00  1.88790e-16
      4208.00  1.85341e-16
      4210.00  1.90598e-16
      4212.00  2.06294e-16
      4214.00  1.80059e-16
      4216.00  1.89100e-16
      4218.00  1.86306e-16
      4220.00  2.05591e-16
      4222.00  1.97170e-16
      4224.00  2.01865e-16
      4226.00  2.11225e-16
      4228.00  1.91583e-16
      4230.00  2.00775e-16
      4232.00  2.19411e-16
      4234.00  2.06021e-16
      4236.00  2.09815e-16
      4238.00  2.15613e-16
      4240.00  2.11947e-16
      4242.00  2.07779e-16
      4244.00  2.11564e-16
      4246.00  2.09441e-16
      4248.00  2.13703e-16
      4250.00  2.15881e-16
      4252.00  2.20795e-16
      4254.00  2.19944e-16
      4256.00  2.20873e-16
      4258.00  2.30459e-16
      4260.00  2.39144e-16
      4262.00  2.27515e-16
      4264.00  2.35515e-16
      4266.00  2.27799e-16
      4268.00  2.26025e-16
      4270.00  2.47367e-16
      4272.00  2.54996e-16
      4274.00  2.53441e-16
      4276.00  2.39401e-16
      4278.00  2.35981e-16
      4280.00  2.50667e-16
      4282.00  2.48735e-16
      4284.00  2.45446e-16
      4286.00  2.29986e-16
      4288.00  2.31219e-16
      4290.00  2.31333e-16
      4292.00  2.15746e-16
      4294.00  1.90388e-16
      4296.00  1.91804e-16
      4298.00  1.96694e-16
      4300.00  2.09946e-16
      4302.00  2.19987e-16
      4304.00  2.18684e-16
      4306.00  2.10286e-16
      4308.00  2.08958e-16
      4310.00  2.15584e-16
      4312.00  2.17153e-16
      4314.00  2.18628e-16
      4316.00  2.16974e-16
      4318.00  2.20694e-16
      4320.00  2.22432e-16
      4322.00  2.08964e-16
      4324.00  2.16346e-16
      4326.00  2.03776e-16
      4328.00  1.82705e-16
      4330.00  1.76181e-16
      4332.00  1.60351e-16
      4334.00  1.58442e-16
      4336.00  1.78807e-16
      4338.00  1.73777e-16
      4340.00  1.94930e-16
      4342.00  1.91842e-16
      4344.00  1.99637e-16
      4346.00  2.09254e-16
      4348.00  2.15761e-16
      4350.00  2.03813e-16
      4352.00  2.04819e-16
      4354.00  2.08442e-16
      4356.00  2.15718e-16
      4358.00  2.30278e-16
      4360.00  2.16756e-16
      4362.00  2.05937e-16
      4364.00  2.13323e-16
      4366.00  2.21019e-16
      4368.00  2.32023e-16
      4370.00  2.28566e-16
      4372.00  2.16915e-16
      4374.00  2.13101e-16
      4376.00  2.41364e-16
      4378.00  2.34075e-16
      4380.00  2.37929e-16
      4382.00  2.31771e-16
      4384.00  2.41709e-16
      4386.00  2.30106e-16
      4388.00  2.34566e-16
      4390.00  2.39617e-16
      4392.00  2.41027e-16
      4394.00  2.49602e-16
      4396.00  2.30558e-16
      4398.00  2.49574e-16
      4400.00  2.36024e-16
      4402.00  2.40259e-16
      4404.00  2.40941e-16
      4406.00  2.54424e-16
      4408.00  2.56924e-16
      4410.00  2.67587e-16
      4412.00  2.67689e-16
      4414.00  2.68072e-16
      4416.00  2.63003e-16
      4418.00  2.49349e-16
      4420.00  2.58231e-16
      4422.00  2.54257e-16
      4424.00  2.58548e-16
      4426.00  2.55230e-16
      4428.00  2.51487e-16
      4430.00  2.46368e-16
      4432.00  2.74107e-16
      4434.00  2.57351e-16
      4436.00  2.50971e-16
      4438.00  2.70018e-16
      4440.00  2.59148e-16
      4442.00  2.57549e-16
      4444.00  2.64987e-16
      4446.00  2.68690e-16
      4448.00  2.64283e-16
      4450.00  2.61069e-16
      4452.00  2.67566e-16
      4454.00  2.62521e-16
      4456.00  2.66030e-16
      4458.00  2.66619e-16
      4460.00  2.86294e-16
      4462.00  2.66030e-16
      4464.00  2.81639e-16
      4466.00  2.82824e-16
      4468.00  2.81416e-16
      4470.00  2.70777e-16
      4472.00  2.61613e-16
      4474.00  2.62667e-16
      4476.00  2.54012e-16
      4478.00  2.53209e-16
      4480.00  2.49985e-16
      4482.00  2.46622e-16
      4484.00  2.54064e-16
      4486.00  2.59776e-16
      4488.00  2.76066e-16
      4490.00  2.62397e-16
      4492.00  2.64722e-16
      4494.00  2.75352e-16
      4496.00  2.66740e-16
      4498.00  2.61021e-16
      4500.00  2.64779e-16
      4502.00  2.58916e-16
      4504.00  2.58717e-16
      4506.00  2.65741e-16
      4508.00  2.62235e-16
      4510.00  2.60303e-16
      4512.00  2.44160e-16
      4514.00  2.38446e-16
      4516.00  2.45757e-16
      4518.00  2.43641e-16
      4520.00  2.43003e-16
      4522.00  2.52403e-16
      4524.00  2.50855e-16
      4526.00  2.39231e-16
      4528.00  2.49154e-16
      4530.00  2.53444e-16
      4532.00  2.62698e-16
      4534.00  2.51404e-16
      4536.00  2.44192e-16
      4538.00  2.55379e-16
      4540.00  2.45518e-16
      4542.00  2.39691e-16
      4544.00  2.52618e-16
      4546.00  2.45569e-16
      4548.00  2.50716e-16
      4550.00  2.48350e-16
      4552.00  2.34520e-16
      4554.00  2.39191e-16
      4556.00  2.39826e-16
      4558.00  2.26376e-16
      4560.00  2.27977e-16
      4562.00  2.23929e-16
      4564.00  2.43693e-16
      4566.00  2.39380e-16
      4568.00  2.43852e-16
      4570.00  2.32061e-16
      4572.00  2.36420e-16
      4574.00  2.30541e-16
      4576.00  2.35723e-16
      4578.00  2.39003e-16
      4580.00  2.31629e-16
      4582.00  2.29825e-16
      4584.00  2.27075e-16
      4586.00  2.20952e-16
      4588.00  2.31315e-16
      4590.00  2.34401e-16
      4592.00  2.20319e-16
      4594.00  2.27053e-16
      4596.00  2.38078e-16
      4598.00  2.40026e-16
      4600.00  2.30451e-16
      4602.00  2.35104e-16
      4604.00  2.31118e-16
      4606.00  2.43407e-16
      4608.00  2.37032e-16
      4610.00  2.18969e-16
      4612.00  2.15419e-16
      4614.00  2.12927e-16
      4616.00  2.09139e-16
      4618.00  2.03461e-16
      4620.00  2.26712e-16
      4622.00  2.25315e-16
      4624.00  2.24057e-16
      4626.00  2.13855e-16
      4628.00  2.27366e-16
      4630.00  2.27253e-16
      4632.00  2.25494e-16
      4634.00  2.26904e-16
      4636.00  2.45949e-16
      4638.00  2.26664e-16
      4640.00  2.27567e-16
      4642.00  2.31559e-16
      4644.00  2.17870e-16
      4646.00  2.06305e-16
      4648.00  2.15237e-16
      4650.00  2.15367e-16
      4652.00  2.14103e-16
      4654.00  2.22174e-16
      4656.00  2.25061e-16
      4658.00  2.23026e-16
      4660.00  2.15695e-16
      4662.00  2.05655e-16
      4664.00  1.97588e-16
      4666.00  1.80446e-16
      4668.00  2.01279e-16
      4670.00  2.03994e-16
      4672.00  2.18865e-16
      4674.00  2.11840e-16
      4676.00  2.08966e-16
      4678.00  2.11798e-16
      4680.00  2.07525e-16
      4682.00  1.94200e-16
      4684.00  2.04685e-16
      4686.00  2.04015e-16
      4688.00  2.02478e-16
      4690.00  1.96090e-16
      4692.00  1.86845e-16
      4694.00  1.90848e-16
      4696.00  1.67533e-16
      4698.00  1.82343e-16
      4700.00  1.79126e-16
      4702.00  1.82150e-16
      4704.00  1.81431e-16
      4706.00  1.94036e-16
      4708.00  1.97428e-16
      4710.00  2.01151e-16
      4712.00  2.21676e-16
      4714.00  2.32389e-16
      4716.00  2.40120e-16
      4718.00  2.23520e-16
      4720.00  2.20717e-16
      4722.00  2.16438e-16
      4724.00  2.10783e-16
      4726.00  2.29862e-16
      4728.00  2.35121e-16
      4730.00  2.42168e-16
      4732.00  2.41707e-16
      4734.00  2.46634e-16
      4736.00  2.37010e-16
      4738.00  2.21908e-16
      4740.00  2.19200e-16
      4742.00  2.33563e-16
      4744.00  2.40641e-16
      4746.00  2.45383e-16
      4748.00  2.48305e-16
      4750.00  2.51441e-16
      4752.00  2.34465e-16
      4754.00  2.34384e-16
      4756.00  2.45552e-16
      4758.00  2.47480e-16
      4760.00  2.56422e-16
      4762.00  2.53781e-16
      4764.00  2.53606e-16
      4766.00  2.64116e-16
      4768.00  2.54695e-16
      4770.00  2.47923e-16
      4772.00  2.37428e-16
      4774.00  2.37175e-16
      4776.00  2.31395e-16
      4778.00  2.38883e-16
      4780.00  2.38187e-16
      4782.00  2.31777e-16
      4784.00  2.25696e-16
      4786.00  2.30531e-16
      4788.00  2.23816e-16
      4790.00  2.03575e-16
      4792.00  2.21398e-16
      4794.00  2.33940e-16
      4796.00  2.26927e-16
      4798.00  2.34141e-16
      4800.00  2.34657e-16
      4802.00  2.39011e-16
      4804.00  2.38943e-16
      4806.00  2.41605e-16
      4808.00  2.38971e-16
      4810.00  2.28061e-16
      4812.00  2.29314e-16
      4814.00  2.39184e-16
      4816.00  2.35895e-16
      4818.00  2.51769e-16
      4820.00  2.55235e-16
      4822.00  2.44835e-16
      4824.00  2.42758e-16
      4826.00  2.59016e-16
      4828.00  2.47703e-16
      4830.00  2.52234e-16
      4832.00  2.47650e-16
      4834.00  2.54108e-16
      4836.00  2.64415e-16
      4838.00  2.60621e-16
      4840.00  2.54137e-16
      4842.00  2.53806e-16
      4844.00  2.63874e-16
      4846.00  2.68647e-16
      4848.00  2.61771e-16
      4850.00  2.65648e-16
      4852.00  2.76392e-16
      4854.00  2.73164e-16
      4856.00  2.73250e-16
      4858.00  2.80675e-16
      4860.00  2.74460e-16
      4862.00  2.77065e-16
      4864.00  2.66274e-16
      4866.00  2.65960e-16
      4868.00  2.61906e-16
      4870.00  2.63922e-16
      4872.00  2.57085e-16
      4874.00  2.64774e-16
      4876.00  2.60071e-16
      4878.00  2.57857e-16
      4880.00  2.59419e-16
      4882.00  2.52369e-16
      4884.00  2.73774e-16
      4886.00  2.81661e-16
      4888.00  2.92524e-16
      4890.00  2.92191e-16
      4892.00  2.81985e-16
      4894.00  2.86837e-16
      4896.00  2.81697e-16
      4898.00  2.88479e-16
      4900.00  3.09747e-16
      4902.00  2.89955e-16
      4904.00  2.78757e-16
      4906.00  2.76154e-16
      4908.00  2.80714e-16
      4910.00  2.90275e-16
      4912.00  2.84257e-16
      4914.00  2.80082e-16
      4916.00  2.85168e-16
      4918.00  2.90038e-16
      4920.00  3.01956e-16
      4922.00  3.00239e-16
      4924.00  3.00670e-16
      4926.00  2.93922e-16
      4928.00  2.96036e-16
      4930.00  2.88316e-16
      4932.00  3.00531e-16
      4934.00  2.90289e-16
      4936.00  2.98364e-16
      4938.00  2.91301e-16
      4940.00  2.87122e-16
      4942.00  2.72585e-16
      4944.00  2.87349e-16
      4946.00  2.68479e-16
      4948.00  2.69269e-16
      4950.00  2.60797e-16
      4952.00  2.73567e-16
      4954.00  2.86076e-16
      4956.00  2.70107e-16
      4958.00  2.91389e-16
      4960.00  2.87308e-16
      4962.00  2.76000e-16
      4964.00  2.67596e-16
      4966.00  2.71735e-16
      4968.00  2.71028e-16
      4970.00  2.73751e-16
      4972.00  2.75601e-16
      4974.00  2.82387e-16
      4976.00  2.80630e-16
      4978.00  2.89091e-16
      4980.00  2.98963e-16
      4982.00  2.98936e-16
      4984.00  2.89469e-16
      4986.00  2.83647e-16
      4988.00  2.94053e-16
      4990.00  2.87162e-16
      4992.00  2.98373e-16
      4994.00  3.02636e-16
      4996.00  2.84093e-16
      4998.00  2.95979e-16
      5000.00  2.95887e-16
      5002.00  2.75661e-16
      5004.00  2.81122e-16
      5006.00  2.80403e-16
      5008.00  2.79211e-16
      5010.00  2.88711e-16
      5012.00  2.79139e-16
      5014.00  2.88481e-16
      5016.00  2.90041e-16
      5018.00  2.79285e-16
      5020.00  2.77057e-16
      5022.00  2.85941e-16
      5024.00  2.87283e-16
      5026.00  2.84655e-16
      5028.00  2.75194e-16
      5030.00  2.76241e-16
      5032.00  2.89009e-16
      5034.00  2.88344e-16
      5036.00  2.87109e-16
      5038.00  2.82067e-16
      5040.00  2.86315e-16
      5042.00  2.77751e-16
      5044.00  2.95405e-16
      5046.00  2.84864e-16
      5048.00  2.76392e-16
      5050.00  2.88110e-16
      5052.00  2.77710e-16
      5054.00  2.91310e-16
      5056.00  2.68761e-16
      5058.00  2.73552e-16
      5060.00  2.67498e-16
      5062.00  2.62102e-16
      5064.00  2.67320e-16
      5066.00  2.76134e-16
      5068.00  2.71094e-16
      5070.00  2.61121e-16
      5072.00  2.62502e-16
      5074.00  2.66328e-16
      5076.00  2.63608e-16
      5078.00  2.54543e-16
      5080.00  2.56015e-16
      5082.00  2.58957e-16
      5084.00  2.66253e-16
      5086.00  2.61654e-16
      5088.00  2.87304e-16
      5090.00  2.78535e-16
      5092.00  2.76825e-16
      5094.00  2.69465e-16
      5096.00  2.65736e-16
      5098.00  2.60377e-16
      5100.00  2.57754e-16
      5102.00  2.55113e-16
      5104.00  2.61307e-16
      5106.00  2.76298e-16
      5108.00  2.61299e-16
      5110.00  2.63349e-16
      5112.00  2.75808e-16
      5114.00  2.62959e-16
      5116.00  2.55008e-16
      5118.00  2.68372e-16
      5120.00  2.79010e-16
      5122.00  2.58234e-16
      5124.00  2.72266e-16
      5126.00  2.59151e-16
      5128.00  2.62840e-16
      5130.00  2.59563e-16
      5132.00  2.46312e-16
      5134.00  2.53960e-16
      5136.00  2.60979e-16
      5138.00  2.49388e-16
      5140.00  2.59671e-16
      5142.00  2.60484e-16
      5144.00  2.50846e-16
      5146.00  2.57844e-16
      5148.00  2.64615e-16
      5150.00  2.65544e-16
      5152.00  2.72588e-16
      5154.00  2.69692e-16
      5156.00  2.83700e-16
      5158.00  2.69504e-16
      5160.00  2.61051e-16
      5162.00  2.51641e-16
      5164.00  2.48949e-16
      5166.00  2.49723e-16
      5168.00  2.59974e-16
      5170.00  2.41529e-16
      5172.00  2.56779e-16
      5174.00  2.65280e-16
      5176.00  2.59790e-16
      5178.00  2.61353e-16
      5180.00  2.59736e-16
      5182.00  2.61013e-16
      5184.00  2.66952e-16
      5186.00  2.72979e-16
      5188.00  2.73541e-16
      5190.00  2.82319e-16
      5192.00  2.78734e-16
      5194.00  2.69493e-16
      5196.00  2.76781e-16
      5198.00  2.76917e-16
      5200.00  2.61546e-16
      5202.00  2.41938e-16
      5204.00  2.57351e-16
      5206.00  2.73705e-16
      5208.00  2.60937e-16
      5210.00  2.84788e-16
      5212.00  2.73360e-16
      5214.00  2.70496e-16
      5216.00  2.77248e-16
      5218.00  2.74506e-16
      5220.00  2.79022e-16
      5222.00  2.68594e-16
      5224.00  2.62777e-16
      5226.00  2.68973e-16
      5228.00  2.61234e-16
      5230.00  2.60113e-16
      5232.00  2.78179e-16
      5234.00  2.76385e-16
      5236.00  2.76663e-16
      5238.00  2.73302e-16
      5240.00  2.78948e-16
      5242.00  2.84824e-16
      5244.00  2.70950e-16
      5246.00  2.71878e-16
      5248.00  2.71893e-16
      5250.00  2.68910e-16
      5252.00  2.66186e-16
      5254.00  2.69051e-16
      5256.00  2.62356e-16
      5258.00  2.62000e-16
      5260.00  2.64763e-16
      5262.00  2.60158e-16
      5264.00  2.70658e-16
      5266.00  2.51342e-16
      5268.00  2.54976e-16
      5270.00  2.41170e-16
      5272.00  2.52437e-16
      5274.00  2.40402e-16
      5276.00  2.50277e-16
      5278.00  2.56269e-16
      5280.00  2.52144e-16
      5282.00  2.47134e-16
      5284.00  2.42412e-16
      5286.00  2.49800e-16
      5288.00  2.53597e-16
      5290.00  2.37554e-16
      5292.00  2.35524e-16
      5294.00  2.43350e-16
      5296.00  2.51772e-16
      5298.00  2.45255e-16
      5300.00  2.33957e-16
      5302.00  2.38647e-16
      5304.00  2.36759e-16
      5306.00  2.23829e-16
      5308.00  2.31403e-16
      5310.00  2.26892e-16
      5312.00  2.18823e-16
      5314.00  2.21926e-16
      5316.00  2.36016e-16
      5318.00  2.45140e-16
      5320.00  2.23413e-16
      5322.00  2.28624e-16
      5324.00  2.33226e-16
      5326.00  2.52733e-16
      5328.00  2.39158e-16
      5330.00  2.38600e-16
      5332.00  2.52933e-16
      5334.00  2.42808e-16
      5336.00  2.53223e-16
      5338.00  2.52665e-16
      5340.00  2.27288e-16
      5342.00  2.38169e-16
      5344.00  2.28568e-16
      5346.00  2.38782e-16
      5348.00  2.45056e-16
      5350.00  2.56857e-16
      5352.00  2.55687e-16
      5354.00  2.47813e-16
      5356.00  2.62382e-16
      5358.00  2.76946e-16
      5360.00  2.62183e-16
      5362.00  2.56986e-16
      5364.00  2.47060e-16
      5366.00  2.62863e-16
      5368.00  2.59739e-16
      5370.00  2.43521e-16
      5372.00  2.43350e-16
      5374.00  2.51094e-16
      5376.00  2.47998e-16
      5378.00  2.49394e-16
      5380.00  2.53429e-16
      5382.00  2.57480e-16
      5384.00  2.54870e-16
      5386.00  2.54905e-16
      5388.00  2.51927e-16
      5390.00  2.52516e-16
      5392.00  2.56842e-16
      5394.00  2.57976e-16
      5396.00  2.57509e-16
      5398.00  2.54849e-16
      5400.00  2.52795e-16
      5402.00  2.51034e-16
      5404.00  2.51114e-16
      5406.00  2.55213e-16
      5408.00  2.54876e-16
      5410.00  2.49507e-16
      5412.00  2.43736e-16
      5414.00  2.43583e-16
      5416.00  2.48718e-16
      5418.00  2.51249e-16
      5420.00  2.55165e-16
      5422.00  2.57016e-16
      5424.00  2.54252e-16
      5426.00  2.46564e-16
      5428.00  2.42606e-16
      5430.00  2.37623e-16
      5432.00  2.36431e-16
      5434.00  2.41516e-16
      5436.00  2.51859e-16
      5438.00  2.55013e-16
      5440.00  2.54694e-16
      5442.00  2.53076e-16
      5444.00  2.48413e-16
      5446.00  2.42541e-16
      5448.00  2.42876e-16
      5450.00  2.51546e-16
      5452.00  2.53133e-16
      5454.00  2.49383e-16
      5456.00  2.43643e-16
      5458.00  2.39535e-16
      5460.00  2.32861e-16
      5462.00  2.32139e-16
      5464.00  2.37392e-16
      5466.00  2.42418e-16
      5468.00  2.43245e-16
      5470.00  2.40831e-16
      5472.00  2.41894e-16
      5474.00  2.45093e-16
      5476.00  2.48064e-16
      5478.00  2.50652e-16
      5480.00  2.53268e-16
      5482.00  2.53604e-16
      5484.00  2.50582e-16
      5486.00  2.49633e-16
      5488.00  2.51228e-16
      5490.00  2.53865e-16
      5492.00  2.54269e-16
      5494.00  2.53088e-16
      5496.00  2.52328e-16
      5498.00  2.51283e-16
      5500.00  2.50406e-16
      5502.00  2.50367e-16
      5504.00  2.50061e-16
      5506.00  2.52187e-16
      5508.00  2.57739e-16
      5510.00  2.62452e-16
      5512.00  2.63585e-16
      5514.00  2.61535e-16
      5516.00  2.62542e-16
      5518.00  2.65039e-16
      5520.00  2.67640e-16
      5522.00  2.70576e-16
      5524.00  2.74006e-16
      5526.00  2.74288e-16
      5528.00  2.72373e-16
      5530.00  2.69320e-16
      5532.00  2.64145e-16
      5534.00  2.57959e-16
      5536.00  2.54691e-16
      5538.00  2.53120e-16
      5540.00  2.52160e-16
      5542.00  2.52486e-16
      5544.00  2.53295e-16
      5546.00  2.53520e-16
      5548.00  2.53195e-16
      5550.00  2.53902e-16
      5552.00  2.55979e-16
      5554.00  2.57479e-16
      5556.00  2.57274e-16
      5558.00  2.55761e-16
      5560.00  2.54395e-16
      5562.00  2.52204e-16
      5564.00  2.50449e-16
      5566.00  2.49476e-16
      5568.00  2.49019e-16
      5570.00  2.48015e-16
      5572.00  2.46714e-16
      5574.00  2.45507e-16
      5576.00  2.44209e-16
      5578.00  2.42997e-16
      5580.00  2.42518e-16
      5582.00  2.42317e-16
      5584.00  2.42992e-16
      5586.00  2.45365e-16
      5588.00  2.47552e-16
      5590.00  2.47301e-16
      5592.00  2.45515e-16
      5594.00  2.42714e-16
      5596.00  2.36520e-16
      5598.00  2.32116e-16
      5600.00  2.32744e-16
      5602.00  2.38118e-16
      5604.00  2.39138e-16
      5606.00  2.37347e-16
      5608.00  2.36789e-16
      5610.00  2.38337e-16
      5612.00  2.41190e-16
      5614.00  2.43389e-16
      5616.00  2.46996e-16
      5618.00  2.48148e-16
      5620.00  2.46018e-16
      5622.00  2.42510e-16
      5624.00  2.42167e-16
      5626.00  2.44533e-16
      5628.00  2.45350e-16
      5630.00  2.46154e-16
      5632.00  2.45995e-16
      5634.00  2.43565e-16
      5636.00  2.38413e-16
      5638.00  2.34322e-16
      5640.00  2.28839e-16
      5642.00  2.24911e-16
      5644.00  2.24176e-16
      5646.00  2.26131e-16
      5648.00  2.27966e-16
      5650.00  2.32202e-16
      5652.00  2.34691e-16
      5654.00  2.34281e-16
      5656.00  2.31918e-16
      5658.00  2.31760e-16
      5660.00  2.32098e-16
      5662.00  2.33456e-16
      5664.00  2.36301e-16
      5666.00  2.39860e-16
      5668.00  2.42110e-16
      5670.00  2.44354e-16
      5672.00  2.45113e-16
      5674.00  2.44030e-16
      5676.00  2.42554e-16
      5678.00  2.42253e-16
      5680.00  2.42346e-16
      5682.00  2.42961e-16
      5684.00  2.45586e-16
      5686.00  2.46599e-16
      5688.00  2.43665e-16
      5690.00  2.36674e-16
      5692.00  2.34645e-16
      5694.00  2.35542e-16
      5696.00  2.36615e-16
      5698.00  2.37764e-16
      5700.00  2.39331e-16
      5702.00  2.39637e-16
      5704.00  2.38980e-16
      5706.00  2.38287e-16
      5708.00  2.37152e-16
      5710.00  2.35963e-16
      5712.00  2.35962e-16
      5714.00  2.36363e-16
      5716.00  2.38023e-16
      5718.00  2.42455e-16
      5720.00  2.46179e-16
      5722.00  2.45226e-16
      5724.00  2.37769e-16
      5726.00  2.37444e-16
      5728.00  2.42640e-16
      5730.00  2.46802e-16
      5732.00  2.46798e-16
      5734.00  2.44201e-16
      5736.00  2.41492e-16
      5738.00  2.37181e-16
      5740.00  2.32981e-16
      5742.00  2.28688e-16
      5744.00  2.24237e-16
      5746.00  2.22303e-16
      5748.00  2.22095e-16
      5750.00  2.23037e-16
      5752.00  2.25927e-16
      5754.00  2.29715e-16
      5756.00  2.31636e-16
      5758.00  2.32329e-16
      5760.00  2.33347e-16
      5762.00  2.34072e-16
      5764.00  2.34936e-16
      5766.00  2.36460e-16
      5768.00  2.38860e-16
      5770.00  2.40399e-16
      5772.00  2.41615e-16
      5774.00  2.42553e-16
      5776.00  2.43108e-16
      5778.00  2.43078e-16
      5780.00  2.44115e-16
      5782.00  2.46087e-16
      5784.00  2.47831e-16
      5786.00  2.49231e-16
      5788.00  2.50468e-16
      5790.00  2.51526e-16
      5792.00  2.52542e-16
      5794.00  2.53134e-16
      5796.00  2.53246e-16
      5798.00  2.53055e-16
      5800.00  2.52917e-16
      5802.00  2.52651e-16
      5804.00  2.52361e-16
      5806.00  2.52100e-16
      5808.00  2.51704e-16
      5810.00  2.50958e-16
      5812.00  2.49356e-16
      5814.00  2.49206e-16
      5816.00  2.50494e-16
      5818.00  2.51462e-16
      5820.00  2.51431e-16
      5822.00  2.50945e-16
      5824.00  2.49418e-16
      5826.00  2.45189e-16
      5828.00  2.43267e-16
      5830.00  2.45073e-16
      5832.00  2.49212e-16
      5834.00  2.49505e-16
      5836.00  2.45714e-16
      5838.00  2.45264e-16
      5840.00  2.48089e-16
      5842.00  2.52403e-16
      5844.00  2.55368e-16
      5846.00  2.59527e-16
      5848.00  2.60639e-16
      5850.00  2.58771e-16
      5852.00  2.56149e-16
      5854.00  2.54814e-16
      5856.00  2.53581e-16
      5858.00  2.53135e-16
      5860.00  2.54212e-16
      5862.00  2.54492e-16
      5864.00  2.52654e-16
      5866.00  2.48821e-16
      5868.00  2.47961e-16
      5870.00  2.49243e-16
      5872.00  2.50283e-16
      5874.00  2.50985e-16
      5876.00  2.51639e-16
      5878.00  2.51667e-16
      5880.00  2.53302e-16
      5882.00  2.50642e-16
      5884.00  2.42531e-16
      5886.00  2.32361e-16
      5888.00  2.26693e-16
      5890.00  2.22958e-16
      5892.00  2.20583e-16
      5894.00  2.20111e-16
      5896.00  2.20735e-16
      5898.00  2.21657e-16
      5900.00  2.22914e-16
      5902.00  2.25914e-16
      5904.00  2.31534e-16
      5906.00  2.36521e-16
      5908.00  2.39771e-16
      5910.00  2.42259e-16
      5912.00  2.42564e-16
      5914.00  2.39333e-16
      5916.00  2.37568e-16
      5918.00  2.37811e-16
      5920.00  2.39185e-16
      5922.00  2.40471e-16
      5924.00  2.43246e-16
      5926.00  2.44225e-16
      5928.00  2.43278e-16
      5930.00  2.41531e-16
      5932.00  2.40884e-16
      5934.00  2.39440e-16
      5936.00  2.40636e-16
      5938.00  2.45870e-16
      5940.00  2.50187e-16
      5942.00  2.48864e-16
      5944.00  2.41242e-16
      5946.00  2.39399e-16
      5948.00  2.40848e-16
      5950.00  2.42079e-16
      5952.00  2.41377e-16
      5954.00  2.39191e-16
      5956.00  2.40735e-16
      5958.00  2.46833e-16
      5960.00  2.50306e-16
      5962.00  2.50124e-16
      5964.00  2.47797e-16
      5966.00  2.46972e-16
      5968.00  2.47117e-16
      5970.00  2.45735e-16
      5972.00  2.42087e-16
      5974.00  2.38106e-16
      5976.00  2.37381e-16
      5978.00  2.39145e-16
      5980.00  2.41014e-16
      5982.00  2.44891e-16
      5984.00  2.48166e-16
      5986.00  2.48395e-16
      5988.00  2.45481e-16
      5990.00  2.44848e-16
      5992.00  2.44631e-16
      5994.00  2.45080e-16
      5996.00  2.46472e-16
      5998.00  2.48902e-16
      6000.00  2.50283e-16
      6002.00  2.51921e-16
      6004.00  2.52234e-16
      6006.00  2.50262e-16
      6008.00  2.46977e-16
      6010.00  2.47430e-16
      6012.00  2.51041e-16
      6014.00  2.53852e-16
      6016.00  2.57276e-16
      6018.00  2.60182e-16
      6020.00  2.59880e-16
      6022.00  2.55325e-16
      6024.00  2.53442e-16
      6026.00  2.51633e-16
      6028.00  2.51209e-16
      6030.00  2.53656e-16
      6032.00  2.60612e-16
      6034.00  2.62163e-16
      6036.00  2.60233e-16
      6038.00  2.58070e-16
      6040.00  2.56419e-16
      6042.00  2.54281e-16
      6044.00  2.54925e-16
      6046.00  2.59467e-16
      6048.00  2.61707e-16
      6050.00  2.60361e-16
      6052.00  2.57211e-16
      6054.00  2.58154e-16
      6056.00  2.62789e-16
      6058.00  2.65634e-16
      6060.00  2.68171e-16
      6062.00  2.69650e-16
      6064.00  2.68035e-16
      6066.00  2.60416e-16
      6068.00  2.58768e-16
      6070.00  2.61247e-16
      6072.00  2.64308e-16
      6074.00  2.65184e-16
      6076.00  2.65065e-16
      6078.00  2.64989e-16
      6080.00  2.64799e-16
      6082.00  2.64039e-16
      6084.00  2.62177e-16
      6086.00  2.59081e-16
      6088.00  2.58796e-16
      6090.00  2.61470e-16
      6092.00  2.62787e-16
      6094.00  2.62517e-16
      6096.00  2.61329e-16
      6098.00  2.59871e-16
      6100.00  2.56631e-16
      6102.00  2.55368e-16
      6104.00  2.56123e-16
      6106.00  2.57581e-16
      6108.00  2.57784e-16
      6110.00  2.55800e-16
      6112.00  2.57275e-16
      6114.00  2.62182e-16
      6116.00  2.66951e-16
      6118.00  2.68806e-16
      6120.00  2.68790e-16
      6122.00  2.68687e-16
      6124.00  2.67574e-16
      6126.00  2.66299e-16
      6128.00  2.64975e-16
      6130.00  2.63338e-16
      6132.00  2.62748e-16
      6134.00  2.63867e-16
      6136.00  2.63538e-16
      6138.00  2.60943e-16
      6140.00  2.57240e-16
      6142.00  2.56479e-16
      6144.00  2.57738e-16
      6146.00  2.59114e-16
      6148.00  2.61788e-16
      6150.00  2.64366e-16
      6152.00  2.64264e-16
      6154.00  2.60691e-16
      6156.00  2.59742e-16
      6158.00  2.59982e-16
      6160.00  2.60556e-16
      6162.00  2.60862e-16
      6164.00  2.61225e-16
      6166.00  2.61622e-16
      6168.00  2.62214e-16
      6170.00  2.62614e-16
      6172.00  2.62708e-16
      6174.00  2.62581e-16
      6176.00  2.62299e-16
      6178.00  2.61288e-16
      6180.00  2.61077e-16
      6182.00  2.61918e-16
      6184.00  2.63374e-16
      6186.00  2.64211e-16
      6188.00  2.65556e-16
      6190.00  2.65462e-16
      6192.00  2.63291e-16
      6194.00  2.60864e-16
      6196.00  2.61020e-16
      6198.00  2.63292e-16
      6200.00  2.65198e-16
      6202.00  2.68578e-16
      6204.00  2.71029e-16
      6206.00  2.70648e-16
      6208.00  2.67470e-16
      6210.00  2.65920e-16
      6212.00  2.64628e-16
      6214.00  2.63367e-16
      6216.00  2.62204e-16
      6218.00  2.61227e-16
      6220.00  2.59259e-16
      6222.00  2.55563e-16
      6224.00  2.53356e-16
      6226.00  2.53180e-16
      6228.00  2.54058e-16
      6230.00  2.53214e-16
      6232.00  2.50456e-16
      6234.00  2.49602e-16
      6236.00  2.49942e-16
      6238.00  2.51323e-16
      6240.00  2.53814e-16
      6242.00  2.58901e-16
      6244.00  2.61734e-16
      6246.00  2.63816e-16
      6248.00  2.65123e-16
      6250.00  2.65612e-16
      6252.00  2.65199e-16
      6254.00  2.64375e-16
      6256.00  2.62307e-16
      6258.00  2.60703e-16
      6260.00  2.59958e-16
      6262.00  2.59706e-16
      6264.00  2.60188e-16
      6266.00  2.62518e-16
      6268.00  2.63341e-16
      6270.00  2.62094e-16
      6272.00  2.59840e-16
      6274.00  2.59535e-16
      6276.00  2.61205e-16
      6278.00  2.61297e-16
      6280.00  2.60096e-16
      6282.00  2.58457e-16
      6284.00  2.57425e-16
      6286.00  2.55916e-16
      6288.00  2.55919e-16
      6290.00  2.57237e-16
      6292.00  2.58920e-16
      6294.00  2.60458e-16
      6296.00  2.62653e-16
      6298.00  2.63072e-16
      6300.00  2.61741e-16
      6302.00  2.60661e-16
      6304.00  2.60465e-16
      6306.00  2.60762e-16
      6308.00  2.60075e-16
      6310.00  2.58363e-16
      6312.00  2.57225e-16
      6314.00  2.56729e-16
      6316.00  2.56578e-16
      6318.00  2.56283e-16
      6320.00  2.55715e-16
      6322.00  2.55840e-16
      6324.00  2.56373e-16
      6326.00  2.57451e-16
      6328.00  2.59344e-16
      6330.00  2.62786e-16
      6332.00  2.65001e-16
      6334.00  2.67025e-16
      6336.00  2.68478e-16
      6338.00  2.69055e-16
      6340.00  2.68673e-16
      6342.00  2.68547e-16
      6344.00  2.68165e-16
      6346.00  2.67805e-16
      6348.00  2.67437e-16
      6350.00  2.67001e-16
      6352.00  2.67270e-16
      6354.00  2.68029e-16
      6356.00  2.69101e-16
      6358.00  2.71015e-16
      6360.00  2.73161e-16
      6362.00  2.73125e-16
      6364.00  2.70438e-16
      6366.00  2.69405e-16
      6368.00  2.69460e-16
      6370.00  2.69873e-16
      6372.00  2.69866e-16
      6374.00  2.69081e-16
      6376.00  2.69852e-16
      6378.00  2.72370e-16
      6380.00  2.74537e-16
      6382.00  2.75152e-16
      6384.00  2.75190e-16
      6386.00  2.73214e-16
      6388.00  2.67898e-16
      6390.00  2.63908e-16
      6392.00  2.62435e-16
      6394.00  2.62554e-16
      6396.00  2.62320e-16
      6398.00  2.62701e-16
      6400.00  2.62936e-16
      6402.00  2.62797e-16
      6404.00  2.62683e-16
      6406.00  2.63760e-16
      6408.00  2.66706e-16
      6410.00  2.68057e-16
      6412.00  2.68780e-16
      6414.00  2.68540e-16
      6416.00  2.66685e-16
      6418.00  2.63283e-16
      6420.00  2.59096e-16
      6422.00  2.53643e-16
      6424.00  2.47478e-16
      6426.00  2.40800e-16
      6428.00  2.33043e-16
      6430.00  2.26470e-16
      6432.00  2.19393e-16
      6434.00  2.14223e-16
      6436.00  2.10972e-16
      6438.00  2.09232e-16
      6440.00  2.12596e-16
      6442.00  2.22179e-16
      6444.00  2.31135e-16
      6446.00  2.41009e-16
      6448.00  2.50951e-16
      6450.00  2.55650e-16
      6452.00  2.55024e-16
      6454.00  2.55774e-16
      6456.00  2.56124e-16
      6458.00  2.56491e-16
      6460.00  2.57785e-16
      6462.00  2.60538e-16
      6464.00  2.61538e-16
      6466.00  2.61309e-16
      6468.00  2.60978e-16
      6470.00  2.61152e-16
      6472.00  2.61382e-16
      6474.00  2.62153e-16
      6476.00  2.63472e-16
      6478.00  2.64896e-16
      6480.00  2.66544e-16
      6482.00  2.68462e-16
      6484.00  2.69106e-16
      6486.00  2.68824e-16
      6488.00  2.68217e-16
      6490.00  2.66989e-16
      6492.00  2.65424e-16
      6494.00  2.64653e-16
      6496.00  2.64192e-16
      6498.00  2.64136e-16
      6500.00  2.64409e-16
      6502.00  2.65114e-16
      6504.00  2.66404e-16
      6506.00  2.68885e-16
      6508.00  2.70238e-16
      6510.00  2.71537e-16
      6512.00  2.71990e-16
      6514.00  2.70972e-16
      6516.00  2.68236e-16
      6518.00  2.67035e-16
      6520.00  2.66493e-16
      6522.00  2.66033e-16
      6524.00  2.65550e-16
      6526.00  2.65151e-16
      6528.00  2.64924e-16
      6530.00  2.64751e-16
      6532.00  2.64879e-16
      6534.00  2.65571e-16
      6536.00  2.66428e-16
      6538.00  2.66283e-16
      6540.00  2.65227e-16
      6542.00  2.64421e-16
      6544.00  2.63662e-16
      6546.00  2.62798e-16
      6548.00  2.61675e-16
      6550.00  2.59886e-16
      6552.00  2.59094e-16
      6554.00  2.58829e-16
      6556.00  2.58959e-16
      6558.00  2.59536e-16
      6560.00  2.60877e-16
      6562.00  2.61101e-16
      6564.00  2.60822e-16
      6566.00  2.60099e-16
      6568.00  2.58706e-16
      6570.00  2.56712e-16
      6572.00  2.55825e-16
      6574.00  2.55942e-16
      6576.00  2.55567e-16
      6578.00  2.54260e-16
      6580.00  2.52916e-16
      6582.00  2.53776e-16
      6584.00  2.57976e-16
      6586.00  2.59236e-16
      6588.00  2.58547e-16
      6590.00  2.56999e-16
      6592.00  2.55574e-16
      6594.00  2.52584e-16
      6596.00  2.52361e-16
      6598.00  2.53960e-16
      6600.00  2.56364e-16
      6602.00  2.59609e-16
      6604.00  2.65137e-16
      6606.00  2.64815e-16
      6608.00  2.59404e-16
      6610.00  2.54186e-16
      6612.00  2.49526e-16
      6614.00  2.44664e-16
      6616.00  2.42258e-16
      6618.00  2.42233e-16
      6620.00  2.41998e-16
      6622.00  2.41295e-16
      6624.00  2.41020e-16
      6626.00  2.43044e-16
      6628.00  2.49115e-16
      6630.00  2.51499e-16
      6632.00  2.52311e-16
      6634.00  2.51201e-16
      6636.00  2.47364e-16
      6638.00  2.38440e-16
      6640.00  2.34257e-16
      6642.00  2.31144e-16
      6644.00  2.30380e-16
      6646.00  2.33135e-16
      6648.00  2.40098e-16
      6650.00  2.43168e-16
      6652.00  2.45303e-16
      6654.00  2.45972e-16
      6656.00  2.44160e-16
      6658.00  2.40389e-16
      6660.00  2.41243e-16
      6662.00  2.47499e-16
      6664.00  2.49911e-16
      6666.00  2.48528e-16
      6668.00  2.45277e-16
      6670.00  2.43216e-16
      6672.00  2.38784e-16
      6674.00  2.39121e-16
      6676.00  2.44774e-16
      6678.00  2.50991e-16
      6680.00  2.52852e-16
      6682.00  2.53031e-16
      6684.00  2.50359e-16
      6686.00  2.41668e-16
      6688.00  2.35392e-16
      6690.00  2.36193e-16
      6692.00  2.43060e-16
      6694.00  2.44565e-16
      6696.00  2.44607e-16
      6698.00  2.43190e-16
      6700.00  2.39048e-16
      6702.00  2.32837e-16
      6704.00  2.33108e-16
      6706.00  2.39982e-16
      6708.00  2.43945e-16
      6710.00  2.45939e-16
      6712.00  2.46740e-16
      6714.00  2.46342e-16
      6716.00  2.44383e-16
      6718.00  2.41996e-16
      6720.00  2.38146e-16
      6722.00  2.34334e-16
      6724.00  2.32194e-16
      6726.00  2.31389e-16
      6728.00  2.30251e-16
      6730.00  2.28856e-16
      6732.00  2.28301e-16
      6734.00  2.29172e-16
      6736.00  2.31332e-16
      6738.00  2.33314e-16
      6740.00  2.36305e-16
      6742.00  2.38470e-16
      6744.00  2.39356e-16
      6746.00  2.39406e-16
      6748.00  2.40327e-16
      6750.00  2.42288e-16
      6752.00  2.42955e-16
      6754.00  2.42251e-16
      6756.00  2.40851e-16
      6758.00  2.39953e-16
      6760.00  2.38496e-16
      6762.00  2.38236e-16
      6764.00  2.38751e-16
      6766.00  2.39955e-16
      6768.00  2.41874e-16
      6770.00  2.45383e-16
      6772.00  2.47141e-16
      6774.00  2.48132e-16
      6776.00  2.48569e-16
      6778.00  2.48472e-16
      6780.00  2.47686e-16
      6782.00  2.47096e-16
      6784.00  2.46272e-16
      6786.00  2.45552e-16
      6788.00  2.45017e-16
      6790.00  2.44583e-16
      6792.00  2.43930e-16
      6794.00  2.42740e-16
      6796.00  2.42289e-16
      6798.00  2.42508e-16
      6800.00  2.43182e-16
      6802.00  2.44038e-16
      6804.00  2.46219e-16
      6806.00  2.46515e-16
      6808.00  2.44775e-16
      6810.00  2.43092e-16
      6812.00  2.43532e-16
      6814.00  2.46116e-16
      6816.00  2.46873e-16
      6818.00  2.47084e-16
      6820.00  2.46743e-16
      6822.00  2.45666e-16
      6824.00  2.43631e-16
      6826.00  2.42855e-16
      6828.00  2.42615e-16
      6830.00  2.42798e-16
      6832.00  2.43557e-16
      6834.00  2.44797e-16
      6836.00  2.45504e-16
      6838.00  2.45502e-16
      6840.00  2.46419e-16
      6842.00  2.48530e-16
      6844.00  2.50976e-16
      6846.00  2.52104e-16
      6848.00  2.52139e-16
      6850.00  2.52543e-16
      6852.00  2.52698e-16
      6854.00  2.53061e-16
      6856.00  2.54086e-16
      6858.00  2.55569e-16
      6860.00  2.57428e-16
      6862.00  2.61744e-16
      6864.00  2.63511e-16
      6866.00  2.59999e-16
      6868.00  2.51583e-16
      6870.00  2.48172e-16
      6872.00  2.45937e-16
      6874.00  2.45966e-16
      6876.00  2.49243e-16
      6878.00  2.54934e-16
      6880.00  2.57539e-16
      6882.00  2.59886e-16
      6884.00  2.59747e-16
      6886.00  2.55916e-16
      6888.00  2.50933e-16
      6890.00  2.49897e-16
      6892.00  2.52344e-16
      6894.00  2.52993e-16
      6896.00  2.53161e-16
      6898.00  2.53157e-16
      6900.00  2.53064e-16
      6902.00  2.51842e-16
      6904.00  2.53451e-16
      6906.00  2.58650e-16
      6908.00  2.62430e-16
      6910.00  2.62720e-16
      6912.00  2.60534e-16
      6914.00  2.58867e-16
      6916.00  2.55241e-16
      6918.00  2.53567e-16
      6920.00  2.54779e-16
      6922.00  2.57765e-16
      6924.00  2.58393e-16
      6926.00  2.58101e-16
      6928.00  2.57251e-16
      6930.00  2.55169e-16
      6932.00  2.52844e-16
      6934.00  2.52347e-16
      6936.00  2.53354e-16
      6938.00  2.54123e-16
      6940.00  2.55838e-16
      6942.00  2.57030e-16
      6944.00  2.56223e-16
      6946.00  2.52708e-16
      6948.00  2.52365e-16
      6950.00  2.54119e-16
      6952.00  2.55911e-16
      6954.00  2.56961e-16
      6956.00  2.57715e-16
      6958.00  2.58982e-16
      6960.00  2.60829e-16
      6962.00  2.62303e-16
      6964.00  2.63205e-16
      6966.00  2.63794e-16
      6968.00  2.64943e-16
      6970.00  2.67402e-16
      6972.00  2.67978e-16
      6974.00  2.66812e-16
      6976.00  2.64636e-16
      6978.00  2.62478e-16
      6980.00  2.58743e-16
      6982.00  2.57076e-16
      6984.00  2.56507e-16
      6986.00  2.56882e-16
      6988.00  2.58264e-16
      6990.00  2.61738e-16
      6992.00  2.62708e-16
      6994.00  2.61691e-16
      6996.00  2.61120e-16
      6998.00  2.62065e-16
      7000.00  2.64136e-16
      7002.00  2.64444e-16
      7004.00  2.63674e-16
      7006.00  2.62714e-16
      7008.00  2.61260e-16
      7010.00  2.59495e-16
      7012.00  2.59305e-16
      7014.00  2.60294e-16
      7016.00  2.61504e-16
      7018.00  2.63221e-16
      7020.00  2.65268e-16
      7022.00  2.67201e-16
      7024.00  2.69758e-16
      7026.00  2.71208e-16
      7028.00  2.72184e-16
      7030.00  2.72405e-16
      7032.00  2.71589e-16
      7034.00  2.69624e-16
      7036.00  2.67592e-16
      7038.00  2.64174e-16
      7040.00  2.61775e-16
      7042.00  2.61306e-16
      7044.00  2.62300e-16
      7046.00  2.63102e-16
      7048.00  2.65128e-16
      7050.00  2.66077e-16
      7052.00  2.65688e-16
      7054.00  2.64445e-16
      7056.00  2.63417e-16
      7058.00  2.61132e-16
      7060.00  2.60750e-16
      7062.00  2.62631e-16
      7064.00  2.65124e-16
      7066.00  2.65576e-16
      7068.00  2.64157e-16
      7070.00  2.63965e-16
      7072.00  2.64211e-16
      7074.00  2.64628e-16
      7076.00  2.65138e-16
      7078.00  2.66448e-16
      7080.00  2.65713e-16
      7082.00  2.63830e-16
      7084.00  2.60885e-16
      7086.00  2.56267e-16
      7088.00  2.49623e-16
      7090.00  2.47349e-16
      7092.00  2.48401e-16
      7094.00  2.49446e-16
      7096.00  2.50363e-16
      7098.00  2.51632e-16
      7100.00  2.53575e-16
      7102.00  2.57025e-16
      7104.00  2.59128e-16
      7106.00  2.60257e-16
      7108.00  2.60744e-16
      7110.00  2.60887e-16
      7112.00  2.59333e-16
      7114.00  2.59971e-16
      7116.00  2.62967e-16
      7118.00  2.65414e-16
      7120.00  2.64996e-16
      7122.00  2.61963e-16
      7124.00  2.60580e-16
      7126.00  2.58635e-16
      7128.00  2.58165e-16
      7130.00  2.60472e-16
      7132.00  2.65410e-16
      7134.00  2.65867e-16
      7136.00  2.62069e-16
      7138.00  2.60357e-16
      7140.00  2.61318e-16
      7142.00  2.63626e-16
      7144.00  2.64519e-16
      7146.00  2.65399e-16
      7148.00  2.65268e-16
      7150.00  2.64408e-16
      7152.00  2.62679e-16
      7154.00  2.59764e-16
      7156.00  2.53860e-16
      7158.00  2.51155e-16
      7160.00  2.50216e-16
      7162.00  2.50073e-16
      7164.00  2.50125e-16
      7166.00  2.51079e-16
      7168.00  2.51228e-16
      7170.00  2.51049e-16
      7172.00  2.50761e-16
      7174.00  2.50160e-16
      7176.00  2.49114e-16
      7178.00  2.50073e-16
      7180.00  2.52176e-16
      7182.00  2.55404e-16
      7184.00  2.60164e-16
      7186.00  2.66023e-16
      7188.00  2.70946e-16
      7190.00  2.78632e-16
      7192.00  2.80354e-16
      7194.00  2.76314e-16
      7196.00  2.69376e-16
      7198.00  2.63411e-16
      7200.00  2.53195e-16
      7202.00  2.49965e-16
      7204.00  2.52522e-16
      7206.00  2.55869e-16
      7208.00  2.56548e-16
      7210.00  2.56299e-16
      7212.00  2.55745e-16
      7214.00  2.54164e-16
      7216.00  2.52867e-16
      7218.00  2.52295e-16
      7220.00  2.52195e-16
      7222.00  2.51534e-16
      7224.00  2.50244e-16
      7226.00  2.49541e-16
      7228.00  2.49529e-16
      7230.00  2.49937e-16
      7232.00  2.50185e-16
      7234.00  2.50728e-16
      7236.00  2.50876e-16
      7238.00  2.50921e-16
      7240.00  2.50600e-16
      7242.00  2.49455e-16
      7244.00  2.45897e-16
      7246.00  2.45667e-16
      7248.00  2.48093e-16
      7250.00  2.50683e-16
      7252.00  2.51781e-16
      7254.00  2.52289e-16
      7256.00  2.52248e-16
      7258.00  2.51527e-16
      7260.00  2.50425e-16
      7262.00  2.48601e-16
      7264.00  2.45935e-16
      7266.00  2.46060e-16
      7268.00  2.49652e-16
      7270.00  2.51176e-16
      7272.00  2.50300e-16
      7274.00  2.48153e-16
      7276.00  2.46857e-16
      7278.00  2.44651e-16
      7280.00  2.44340e-16
      7282.00  2.46040e-16
      7284.00  2.48427e-16
      7286.00  2.49733e-16
      7288.00  2.50752e-16
      7290.00  2.51476e-16
      7292.00  2.51970e-16
      7294.00  2.52092e-16
      7296.00  2.51678e-16
      7298.00  2.50514e-16
      7300.00  2.50058e-16
      7302.00  2.49746e-16
      7304.00  2.49778e-16
      7306.00  2.50273e-16
      7308.00  2.51194e-16
      7310.00  2.51913e-16
      7312.00  2.53734e-16
      7314.00  2.53621e-16
      7316.00  2.50321e-16
      7318.00  2.45762e-16
      7320.00  2.46188e-16
      7322.00  2.51876e-16
      7324.00  2.54538e-16
      7326.00  2.55346e-16
      7328.00  2.55531e-16
      7330.00  2.56328e-16
      7332.00  2.57220e-16
      7334.00  2.58075e-16
      7336.00  2.59728e-16
      7338.00  2.60375e-16
      7340.00  2.58518e-16
      7342.00  2.53488e-16
      7344.00  2.52668e-16
      7346.00  2.55023e-16
      7348.00  2.56867e-16
      7350.00  2.57615e-16
      7352.00  2.57989e-16
      7354.00  2.56500e-16
      7356.00  2.51797e-16
      7358.00  2.49214e-16
      7360.00  2.49161e-16
      7362.00  2.50324e-16
      7364.00  2.49922e-16
      7366.00  2.48865e-16
      7368.00  2.47733e-16
      7370.00  2.46328e-16
      7372.00  2.44772e-16
      7374.00  2.43257e-16
      7376.00  2.41172e-16
      7378.00  2.40258e-16
      7380.00  2.40023e-16
      7382.00  2.40344e-16
      7384.00  2.41145e-16
      7386.00  2.42456e-16
      7388.00  2.44348e-16
      7390.00  2.47976e-16
      7392.00  2.50285e-16
      7394.00  2.50149e-16
      7396.00  2.48207e-16
      7398.00  2.48759e-16
      7400.00  2.52255e-16
      7402.00  2.53017e-16
      7404.00  2.50648e-16
      7406.00  2.46565e-16
      7408.00  2.43697e-16
      7410.00  2.40029e-16
      7412.00  2.38145e-16
      7414.00  2.37520e-16
      7416.00  2.38017e-16
      7418.00  2.39645e-16
      7420.00  2.44599e-16
      7422.00  2.45465e-16
      7424.00  2.43180e-16
      7426.00  2.40966e-16
      7428.00  2.40652e-16
      7430.00  2.41178e-16
      7432.00  2.42523e-16
      7434.00  2.46308e-16
      7436.00  2.48333e-16
      7438.00  2.47263e-16
      7440.00  2.43984e-16
      7442.00  2.43014e-16
      7444.00  2.43111e-16
      7446.00  2.43149e-16
      7448.00  2.43091e-16
      7450.00  2.43178e-16
      7452.00  2.43844e-16
      7454.00  2.45462e-16
      7456.00  2.46362e-16
      7458.00  2.46831e-16
      7460.00  2.47075e-16
      7462.00  2.47316e-16
      7464.00  2.48736e-16
      7466.00  2.46947e-16
      7468.00  2.41389e-16
      7470.00  2.36576e-16
      7472.00  2.35086e-16
      7474.00  2.35790e-16
      7476.00  2.36630e-16
      7478.00  2.39630e-16
      7480.00  2.41311e-16
      7482.00  2.40524e-16
      7484.00  2.38043e-16
      7486.00  2.38170e-16
      7488.00  2.40413e-16
      7490.00  2.41705e-16
      7492.00  2.42098e-16
      7494.00  2.42078e-16
      7496.00  2.42264e-16
      7498.00  2.42747e-16
      7500.00  2.42487e-16
      7502.00  2.40978e-16
      7504.00  2.39688e-16
      7506.00  2.40459e-16
      7508.00  2.44556e-16
      7510.00  2.44617e-16
      7512.00  2.41227e-16
      7514.00  2.38467e-16
      7516.00  2.38617e-16
      7518.00  2.40748e-16
      7520.00  2.42498e-16
      7522.00  2.44757e-16
      7524.00  2.47284e-16
      7526.00  2.50598e-16
      7528.00  2.54567e-16
      7530.00  2.55067e-16
      7532.00  2.51895e-16
      7534.00  2.49950e-16
      7536.00  2.48940e-16
      7538.00  2.48328e-16
      7540.00  2.47852e-16
      7542.00  2.47531e-16
      7544.00  2.47635e-16
      7546.00  2.48372e-16
      7548.00  2.49205e-16
      7550.00  2.49538e-16
      7552.00  2.50154e-16
      7554.00  2.49279e-16
      7556.00  2.46090e-16
      7558.00  2.43842e-16
      7560.00  2.44276e-16
      7562.00  2.46641e-16
      7564.00  2.49217e-16
      7566.00  2.54356e-16
      7568.00  2.57392e-16
      7570.00  2.57268e-16
      7572.00  2.54939e-16
      7574.00  2.53249e-16
      7576.00  2.50005e-16
      7578.00  2.48516e-16
      7580.00  2.49298e-16
      7582.00  2.50957e-16
      7584.00  2.50365e-16
      7586.00  2.48473e-16
      7588.00  2.46266e-16
      7590.00  2.42327e-16
      7592.00  2.38976e-16
      7594.00  2.38926e-16
      7596.00  2.41756e-16
      7598.00  2.44380e-16
      7600.00  2.47991e-16
      7602.00  2.52091e-16
      7604.00  2.56761e-16
      7606.00  2.62777e-16
      7608.00  2.65455e-16
      7610.00  2.66726e-16
      7612.00  2.65694e-16
      7614.00  2.61511e-16
      7616.00  2.54653e-16
      7618.00  2.50227e-16
      7620.00  2.45493e-16
      7622.00  2.42932e-16
      7624.00  2.42593e-16
      7626.00  2.43876e-16
      7628.00  2.45736e-16
      7630.00  2.51046e-16
      7632.00  2.52251e-16
      7634.00  2.49088e-16
      7636.00  2.45929e-16
      7638.00  2.47510e-16
      7640.00  2.54500e-16
      7642.00  2.56262e-16
      7644.00  2.55223e-16
      7646.00  2.53690e-16
      7648.00  2.52622e-16
      7650.00  2.51172e-16
      7652.00  2.50746e-16
      7654.00  2.51575e-16
      7656.00  2.51765e-16
      7658.00  2.50935e-16
      7660.00  2.49474e-16
      7662.00  2.48442e-16
      7664.00  2.46902e-16
      7666.00  2.46435e-16
      7668.00  2.47217e-16
      7670.00  2.48633e-16
      7672.00  2.49440e-16
      7674.00  2.50156e-16
      7676.00  2.50758e-16
      7678.00  2.51358e-16
      7680.00  2.51742e-16
      7682.00  2.51621e-16
      7684.00  2.50306e-16
      7686.00  2.50857e-16
      7688.00  2.53346e-16
      7690.00  2.55255e-16
      7692.00  2.55293e-16
      7694.00  2.53878e-16
      7696.00  2.53483e-16
      7698.00  2.53484e-16
      7700.00  2.53286e-16
      7702.00  2.53070e-16
      7704.00  2.52793e-16
      7706.00  2.50847e-16
      7708.00  2.46347e-16
      7710.00  2.43599e-16
      7712.00  2.42612e-16
      7714.00  2.42350e-16
      7716.00  2.41103e-16
      7718.00  2.37955e-16
      7720.00  2.37948e-16
      7722.00  2.41073e-16
      7724.00  2.44640e-16
      7726.00  2.46058e-16
      7728.00  2.46807e-16
      7730.00  2.46064e-16
      7732.00  2.43630e-16
      7734.00  2.40620e-16
      7736.00  2.37108e-16
      7738.00  2.32213e-16
      7740.00  2.31087e-16
      7742.00  2.33841e-16
      7744.00  2.35425e-16
      7746.00  2.35234e-16
      7748.00  2.34130e-16
      7750.00  2.32941e-16
      7752.00  2.29904e-16
      7754.00  2.29257e-16
      7756.00  2.31735e-16
      7758.00  2.35157e-16
      7760.00  2.35144e-16
      7762.00  2.31010e-16
      7764.00  2.30571e-16
      7766.00  2.33610e-16
      7768.00  2.36264e-16
      7770.00  2.34677e-16
      7772.00  2.28082e-16
      7774.00  2.26627e-16
      7776.00  2.28429e-16
      7778.00  2.30134e-16
      7780.00  2.30450e-16
      7782.00  2.30353e-16
      7784.00  2.29136e-16
      7786.00  2.25483e-16
      7788.00  2.23603e-16
      7790.00  2.24273e-16
      7792.00  2.26571e-16
      7794.00  2.27820e-16
      7796.00  2.30444e-16
      7798.00  2.30285e-16
      7800.00  2.26043e-16
      7802.00  2.20832e-16
      7804.00  2.20980e-16
      7806.00  2.26348e-16
      7808.00  2.29096e-16
      7810.00  2.32012e-16
      7812.00  2.33732e-16
      7814.00  2.32580e-16
      7816.00  2.26892e-16
      7818.00  2.26345e-16
      7820.00  2.29983e-16
      7822.00  2.32526e-16
      7824.00  2.31509e-16
      7826.00  2.27809e-16
      7828.00  2.26738e-16
      7830.00  2.26525e-16
      7832.00  2.26991e-16
      7834.00  2.28543e-16
      7836.00  2.30900e-16
      7838.00  2.31490e-16
      7840.00  2.31660e-16
      7842.00  2.30294e-16
      7844.00  2.26752e-16
      7846.00  2.22357e-16
      7848.00  2.19799e-16
      7850.00  2.17404e-16
      7852.00  2.16872e-16
      7854.00  2.18340e-16
      7856.00  2.20536e-16
      7858.00  2.22299e-16
      7860.00  2.23925e-16
      7862.00  2.26540e-16
      7864.00  2.31064e-16
      7866.00  2.34352e-16
      7868.00  2.35285e-16
      7870.00  2.34697e-16
      7872.00  2.32239e-16
      7874.00  2.25094e-16
      7876.00  2.21248e-16
      7878.00  2.21906e-16
      7880.00  2.25371e-16
      7882.00  2.27415e-16
      7884.00  2.30603e-16
      7886.00  2.32084e-16
      7888.00  2.31685e-16
      7890.00  2.30503e-16
      7892.00  2.30408e-16
      7894.00  2.30488e-16
      7896.00  2.31119e-16
      7898.00  2.32113e-16
      7900.00  2.33645e-16
      7902.00  2.36047e-16
      7904.00  2.40587e-16
      7906.00  2.41491e-16
      7908.00  2.39452e-16
      7910.00  2.37379e-16
      7912.00  2.36145e-16
      7914.00  2.34902e-16
      7916.00  2.35218e-16
      7918.00  2.37614e-16
      7920.00  2.39179e-16
      7922.00  2.39560e-16
      7924.00  2.39330e-16
      7926.00  2.39673e-16
      7928.00  2.39942e-16
      7930.00  2.40720e-16
      7932.00  2.42434e-16
      7934.00  2.44207e-16
      7936.00  2.44379e-16
      7938.00  2.42812e-16
      7940.00  2.42169e-16
      7942.00  2.42102e-16
      7944.00  2.41735e-16
      7946.00  2.40236e-16
      7948.00  2.37115e-16
      7950.00  2.36124e-16
      7952.00  2.36942e-16
      7954.00  2.37338e-16
      7956.00  2.36206e-16
      7958.00  2.33809e-16
      7960.00  2.34090e-16
      7962.00  2.35282e-16
      7964.00  2.38455e-16
      7966.00  2.45751e-16
      7968.00  2.55176e-16
      7970.00  2.54958e-16
      7972.00  2.44264e-16
      7974.00  2.38840e-16
      7976.00  2.35899e-16
      7978.00  2.35180e-16
      7980.00  2.38053e-16
      7982.00  2.47940e-16
      7984.00  2.52173e-16
      7986.00  2.54210e-16
      7988.00  2.54493e-16
      7990.00  2.52999e-16
      7992.00  2.47864e-16
      7994.00  2.46914e-16
      7996.00  2.49615e-16
      7998.00  2.50935e-16
      8000.00  2.48557e-16
      8002.00  2.43193e-16
      8004.00  2.42502e-16
      8006.00  2.44884e-16
      8008.00  2.47354e-16
      8010.00  2.50536e-16
      8012.00  2.54157e-16
      8014.00  2.54317e-16
      8016.00  2.50969e-16
      8018.00  2.48685e-16
      8020.00  2.46636e-16
      8022.00  2.44740e-16
      8024.00  2.43347e-16
      8026.00  2.41710e-16
      8028.00  2.41721e-16
      8030.00  2.43331e-16
      8032.00  2.45441e-16
      8034.00  2.47159e-16
      8036.00  2.48652e-16
      8038.00  2.51195e-16
      8040.00  2.55743e-16
      8042.00  2.58858e-16
      8044.00  2.59012e-16
      8046.00  2.56729e-16
      8048.00  2.57043e-16
      8050.00  2.59802e-16
      8052.00  2.60534e-16
      8054.00  2.58370e-16
      8056.00  2.54636e-16
      8058.00  2.53497e-16
      8060.00  2.54206e-16
      8062.00  2.54219e-16
      8064.00  2.54094e-16
      8066.00  2.53730e-16
      8068.00  2.52694e-16
      8070.00  2.50267e-16
      8072.00  2.49327e-16
      8074.00  2.49079e-16
      8076.00  2.49388e-16
      8078.00  2.50276e-16
      8080.00  2.52384e-16
      8082.00  2.52878e-16
      8084.00  2.52282e-16
      8086.00  2.51624e-16
      8088.00  2.51251e-16
      8090.00  2.50960e-16
      8092.00  2.50179e-16
      8094.00  2.48914e-16
      8096.00  2.47706e-16
      8098.00  2.46532e-16
      8100.00  2.45355e-16
      8102.00  2.44330e-16
      8104.00  2.43168e-16
      8106.00  2.42552e-16
      8108.00  2.42436e-16
      8110.00  2.42659e-16
      8112.00  2.43017e-16
      8114.00  2.42814e-16
      8116.00  2.44548e-16
      8118.00  2.49391e-16
      8120.00  2.53101e-16
      8122.00  2.52186e-16
      8124.00  2.46178e-16
      8126.00  2.45439e-16
      8128.00  2.48332e-16
      8130.00  2.50361e-16
      8132.00  2.49863e-16
      8134.00  2.47665e-16
      8136.00  2.48104e-16
      8138.00  2.51761e-16
      8140.00  2.52748e-16
      8142.00  2.49783e-16
      8144.00  2.44928e-16
      8146.00  2.44657e-16
      8148.00  2.48416e-16
      8150.00  2.50338e-16
      8152.00  2.51964e-16
      8154.00  2.52709e-16
      8156.00  2.51139e-16
      8158.00  2.43928e-16
      8160.00  2.43719e-16
      8162.00  2.49659e-16
      8164.00  2.55058e-16
      8166.00  2.54964e-16
      8168.00  2.50463e-16
      8170.00  2.48791e-16
      8172.00  2.46934e-16
      8174.00  2.46472e-16
      8176.00  2.48513e-16
      8178.00  2.52897e-16
      8180.00  2.53136e-16
      8182.00  2.49648e-16
      8184.00  2.47706e-16
      8186.00  2.47640e-16
      8188.00  2.48422e-16
      8190.00  2.48183e-16
      8192.00  2.47029e-16
      8194.00  2.46828e-16
      8196.00  2.47488e-16
      8198.00  2.48466e-16
      8200.00  2.49060e-16
      8202.00  2.49561e-16
      8204.00  2.50035e-16
      8206.00  2.50549e-16
      8208.00  2.50907e-16
      8210.00  2.50946e-16
      8212.00  2.50611e-16
      8214.00  2.50567e-16
      8216.00  2.50534e-16
      8218.00  2.50665e-16
      8220.00  2.51061e-16
      8222.00  2.51701e-16
      8224.00  2.52021e-16
      8226.00  2.51872e-16
      8228.00  2.52235e-16
      8230.00  2.53626e-16
      8232.00  2.55323e-16
      8234.00  2.54774e-16
      8236.00  2.51377e-16
      8238.00  2.49962e-16
      8240.00  2.49867e-16
      8242.00  2.50396e-16
      8244.00  2.50847e-16
      8246.00  2.51502e-16
      8248.00  2.52462e-16
      8250.00  2.54120e-16
      8252.00  2.55522e-16
      8254.00  2.55820e-16
      8256.00  2.54500e-16
      8258.00  2.56229e-16
      8260.00  2.61102e-16
      8262.00  2.64892e-16
      8264.00  2.66687e-16
      8266.00  2.67348e-16
      8268.00  2.66560e-16
      8270.00  2.63010e-16
      8272.00  2.60708e-16
      8274.00  2.59609e-16
      8276.00  2.59199e-16
      8278.00  2.59169e-16
      8280.00  2.61517e-16
      8282.00  2.60565e-16
      8284.00  2.55818e-16
      8286.00  2.50501e-16
      8288.00  2.48882e-16
      8290.00  2.48902e-16
      8292.00  2.51009e-16
      8294.00  2.58535e-16
      8296.00  2.63597e-16
      8298.00  2.60624e-16
      8300.00  2.50017e-16
      8302.00  2.45047e-16
      8304.00  2.40796e-16
      8306.00  2.38532e-16
      8308.00  2.39274e-16
      8310.00  2.42767e-16
      8312.00  2.42708e-16
      8314.00  2.38979e-16
      8316.00  2.38307e-16
      8318.00  2.41736e-16
      8320.00  2.46982e-16
      8322.00  2.48174e-16
      8324.00  2.46888e-16
      8326.00  2.45388e-16
      8328.00  2.41699e-16
      8330.00  2.38558e-16
      8332.00  2.39921e-16
      8334.00  2.46362e-16
      8336.00  2.50030e-16
      8338.00  2.54620e-16
      8340.00  2.57322e-16
      8342.00  2.56021e-16
      8344.00  2.50289e-16
      8346.00  2.48247e-16
      8348.00  2.48093e-16
      8350.00  2.47459e-16
      8352.00  2.45678e-16
      8354.00  2.43224e-16
      8356.00  2.41725e-16
      8358.00  2.40382e-16
      8360.00  2.39794e-16
      8362.00  2.40844e-16
      8364.00  2.42324e-16
      8366.00  2.40195e-16
      8368.00  2.34101e-16
      8370.00  2.30011e-16
      8372.00  2.25191e-16
      8374.00  2.22214e-16
      8376.00  2.24935e-16
      8378.00  2.36447e-16
      8380.00  2.40436e-16
      8382.00  2.40706e-16
      8384.00  2.40319e-16
      8386.00  2.41003e-16
      8388.00  2.41678e-16
      8390.00  2.42737e-16
      8392.00  2.45116e-16
      8394.00  2.46037e-16
      8396.00  2.44691e-16
      8398.00  2.41649e-16
      8400.00  2.39271e-16
      8402.00  2.35478e-16
      8404.00  2.33751e-16
      8406.00  2.34177e-16
      8408.00  2.36055e-16
      8410.00  2.38187e-16
      8412.00  2.42012e-16
      8414.00  2.44603e-16
      8416.00  2.46890e-16
      8418.00  2.48409e-16
      8420.00  2.48399e-16
      8422.00  2.46428e-16
      8424.00  2.45166e-16
      8426.00  2.42804e-16
      8428.00  2.41578e-16
      8430.00  2.43173e-16
      8432.00  2.48074e-16
      8434.00  2.48577e-16
      8436.00  2.46193e-16
      8438.00  2.43751e-16
      8440.00  2.41739e-16
      8442.00  2.39640e-16
      8444.00  2.37389e-16
      8446.00  2.33614e-16
      8448.00  2.32299e-16
      8450.00  2.34137e-16
      8452.00  2.37491e-16
      8454.00  2.38372e-16
      8456.00  2.38268e-16
      8458.00  2.37530e-16
      8460.00  2.35056e-16
      8462.00  2.32814e-16
      8464.00  2.33289e-16
      8466.00  2.36396e-16
      8468.00  2.38437e-16
      8470.00  2.40837e-16
      8472.00  2.43002e-16
      8474.00  2.44514e-16
      8476.00  2.45316e-16
      8478.00  2.47048e-16
      8480.00  2.50508e-16
      8482.00  2.52147e-16
      8484.00  2.50904e-16
      8486.00  2.47563e-16
      8488.00  2.45852e-16
      8490.00  2.44866e-16
      8492.00  2.43300e-16
      8494.00  2.40753e-16
      8496.00  2.38019e-16
      8498.00  2.37129e-16
      8500.00  2.37409e-16
      8502.00  2.38406e-16
      8504.00  2.40878e-16
      8506.00  2.43560e-16
      8508.00  2.44890e-16
      8510.00  2.44778e-16
      8512.00  2.46111e-16
      8514.00  2.49325e-16
      8516.00  2.51247e-16
      8518.00  2.49819e-16
      8520.00  2.45021e-16
      8522.00  2.43835e-16
      8524.00  2.44869e-16
      8526.00  2.45558e-16
      8528.00  2.45445e-16
      8530.00  2.45005e-16
      8532.00  2.44871e-16
      8534.00  2.44410e-16
      8536.00  2.44778e-16
      8538.00  2.46653e-16
      8540.00  2.48855e-16
      8542.00  2.48285e-16
      8544.00  2.44347e-16
      8546.00  2.42750e-16
      8548.00  2.42880e-16
      8550.00  2.43145e-16
      8552.00  2.41887e-16
      8554.00  2.39143e-16
      8556.00  2.37572e-16
      8558.00  2.35890e-16
      8560.00  2.35128e-16
      8562.00  2.35962e-16
      8564.00  2.38434e-16
      8566.00  2.39941e-16
      8568.00  2.42068e-16
      8570.00  2.42957e-16
      8572.00  2.42005e-16
      8574.00  2.39679e-16
      8576.00  2.38496e-16
      8578.00  2.37581e-16
      8580.00  2.36784e-16
      8582.00  2.36113e-16
      8584.00  2.35590e-16
      8586.00  2.35241e-16
      8588.00  2.34699e-16
      8590.00  2.35066e-16
      8592.00  2.36850e-16
      8594.00  2.38480e-16
      8596.00  2.38195e-16
      8598.00  2.35743e-16
      8600.00  2.35074e-16
      8602.00  2.35135e-16
      8604.00  2.35433e-16
      8606.00  2.35682e-16
      8608.00  2.35921e-16
      8610.00  2.36973e-16
      8612.00  2.39137e-16
      8614.00  2.40868e-16
      8616.00  2.42116e-16
      8618.00  2.43068e-16
      8620.00  2.42797e-16
      8622.00  2.40781e-16
      8624.00  2.39518e-16
      8626.00  2.38746e-16
      8628.00  2.38291e-16
      8630.00  2.38239e-16
      8632.00  2.39939e-16
      8634.00  2.39102e-16
      8636.00  2.35818e-16
      8638.00  2.32135e-16
      8640.00  2.30129e-16
      8642.00  2.29024e-16
      8644.00  2.27999e-16
      8646.00  2.27748e-16
      8648.00  2.27241e-16
      8650.00  2.25644e-16
      8652.00  2.22641e-16
      8654.00  2.23312e-16
      8656.00  2.28033e-16
      8658.00  2.31158e-16
      8660.00  2.31677e-16
      8662.00  2.30713e-16
      8664.00  2.30902e-16
      8666.00  2.31016e-16
      8668.00  2.31784e-16
      8670.00  2.33974e-16
      8672.00  2.36268e-16
      8674.00  2.35525e-16
      8676.00  2.30204e-16
      8678.00  2.29118e-16
      8680.00  2.30677e-16
      8682.00  2.33411e-16
      8684.00  2.36164e-16
      8686.00  2.41218e-16
      8688.00  2.42146e-16
      8690.00  2.39750e-16
      8692.00  2.37059e-16
      8694.00  2.35110e-16
      8696.00  2.32698e-16
      8698.00  2.33059e-16
      8700.00  2.35818e-16
      8702.00  2.39000e-16
      8704.00  2.43217e-16
      8706.00  2.48285e-16
      8708.00  2.49002e-16
      8710.00  2.44370e-16
      8712.00  2.42936e-16
      8714.00  2.44344e-16
      8716.00  2.47029e-16
      8718.00  2.48839e-16
      8720.00  2.52787e-16
      8722.00  2.52270e-16
      8724.00  2.46730e-16
      8726.00  2.40934e-16
      8728.00  2.39570e-16
      8730.00  2.41820e-16
      8732.00  2.42067e-16
      8734.00  2.41892e-16
      8736.00  2.41844e-16
      8738.00  2.41988e-16
      8740.00  2.41972e-16
      8742.00  2.43747e-16
      8744.00  2.48899e-16
      8746.00  2.51345e-16
      8748.00  2.49913e-16
      8750.00  2.45957e-16
      8752.00  2.43566e-16
      8754.00  2.40392e-16
      8756.00  2.38830e-16
      8758.00  2.39481e-16
      8760.00  2.40791e-16
      8762.00  2.39630e-16
      8764.00  2.33891e-16
      8766.00  2.34235e-16
      8768.00  2.39699e-16
      8770.00  2.46283e-16
      8772.00  2.50568e-16
      8774.00  2.56098e-16
      8776.00  2.55715e-16
      8778.00  2.49044e-16
      8780.00  2.42617e-16
      8782.00  2.38845e-16
      8784.00  2.35871e-16
      8786.00  2.35114e-16
      8788.00  2.36709e-16
      8790.00  2.38963e-16
      8792.00  2.42307e-16
      8794.00  2.46587e-16
      8796.00  2.48406e-16
      8798.00  2.48273e-16
      8800.00  2.48434e-16
      8802.00  2.49035e-16
      8804.00  2.49235e-16
      8806.00  2.47553e-16
      8808.00  2.43001e-16
      8810.00  2.40624e-16
      8812.00  2.39045e-16
      8814.00  2.38239e-16
      8816.00  2.38459e-16
      8818.00  2.41364e-16
      8820.00  2.39929e-16
      8822.00  2.35092e-16
      8824.00  2.30119e-16
      8826.00  2.25811e-16
      8828.00  2.20908e-16
      8830.00  2.20139e-16
      8832.00  2.22542e-16
      8834.00  2.26277e-16
      8836.00  2.32433e-16
      8838.00  2.40341e-16
      8840.00  2.42822e-16
      8842.00  2.40904e-16
      8844.00  2.39526e-16
      8846.00  2.37690e-16
      8848.00  2.35604e-16
      8850.00  2.34413e-16
      8852.00  2.33229e-16
      8854.00  2.33320e-16
      8856.00  2.34911e-16
      8858.00  2.36777e-16
      8860.00  2.37897e-16
      8862.00  2.39117e-16
      8864.00  2.39114e-16
      8866.00  2.36799e-16
      8868.00  2.35905e-16
      8870.00  2.38177e-16
      8872.00  2.43074e-16
      8874.00  2.45723e-16
      8876.00  2.49367e-16
      8878.00  2.49785e-16
      8880.00  2.45172e-16
      8882.00  2.37416e-16
      8884.00  2.35696e-16
      8886.00  2.38388e-16
      8888.00  2.40027e-16
      8890.00  2.41270e-16
      8892.00  2.42661e-16
      8894.00  2.44574e-16
      8896.00  2.49058e-16
      8898.00  2.49156e-16
      8900.00  2.44885e-16
      8902.00  2.40419e-16
      8904.00  2.39274e-16
      8906.00  2.40075e-16
      8908.00  2.41118e-16
      8910.00  2.45118e-16
      8912.00  2.46733e-16
      8914.00  2.43430e-16
      8916.00  2.35923e-16
      8918.00  2.32321e-16
      8920.00  2.29953e-16
      8922.00  2.28386e-16
      8924.00  2.26977e-16
      8926.00  2.26331e-16
      8928.00  2.29972e-16
      8930.00  2.40839e-16
      8932.00  2.46263e-16
      8934.00  2.47863e-16
      8936.00  2.46865e-16
      8938.00  2.44088e-16
      8940.00  2.36265e-16
      8942.00  2.32600e-16
      8944.00  2.30768e-16
      8946.00  2.30064e-16
      8948.00  2.30164e-16
      8950.00  2.32412e-16
      8952.00  2.31914e-16
      8954.00  2.29870e-16
      8956.00  2.27268e-16
      8958.00  2.23996e-16
      8960.00  2.19529e-16
      8962.00  2.18356e-16
      8964.00  2.18883e-16
      8966.00  2.21170e-16
      8968.00  2.26184e-16
      8970.00  2.33031e-16
      8972.00  2.36394e-16
      8974.00  2.38594e-16
      8976.00  2.38773e-16
      8978.00  2.35870e-16
      8980.00  2.31959e-16
      8982.00  2.30765e-16
      8984.00  2.29008e-16
      8986.00  2.31990e-16
      8988.00  2.41713e-16
      8990.00  2.50480e-16
      8992.00  2.52067e-16
      8994.00  2.48375e-16
      8996.00  2.45109e-16
      8998.00  2.37914e-16
      9000.00  2.33009e-16
      9002.00  2.32666e-16
      9004.00  2.35668e-16
      9006.00  2.37997e-16
      9008.00  2.43828e-16
      9010.00  2.45535e-16
      9012.00  2.40776e-16
      9014.00  2.32622e-16
      9016.00  2.32707e-16
      9018.00  2.39477e-16
      9020.00  2.44254e-16
      9022.00  2.49334e-16
      9024.00  2.53691e-16
      9026.00  2.54623e-16
      9028.00  2.52270e-16
      9030.00  2.49910e-16
      9032.00  2.45112e-16
      9034.00  2.41061e-16
      9036.00  2.40434e-16
      9038.00  2.43293e-16
      9040.00  2.43262e-16
      9042.00  2.41730e-16
      9044.00  2.40469e-16
      9046.00  2.40436e-16
      9048.00  2.41440e-16
      9050.00  2.39056e-16
      9052.00  2.31829e-16
      9054.00  2.28112e-16
      9056.00  2.29440e-16
      9058.00  2.33332e-16
      9060.00  2.32312e-16
      9062.00  2.27583e-16
      9064.00  2.24166e-16
      9066.00  2.20468e-16
      9068.00  2.17511e-16
      9070.00  2.17495e-16
      9072.00  2.20629e-16
      9074.00  2.23190e-16
      9076.00  2.26697e-16
      9078.00  2.30270e-16
      9080.00  2.33436e-16
      9082.00  2.37445e-16
      9084.00  2.37892e-16
      9086.00  2.33461e-16
      9088.00  2.31140e-16
      9090.00  2.33974e-16
      9092.00  2.40844e-16
      9094.00  2.40780e-16
      9096.00  2.33753e-16
      9098.00  2.30637e-16
      9100.00  2.32695e-16
      9102.00  2.37319e-16
      9104.00  2.38233e-16
      9106.00  2.38055e-16
      9108.00  2.36227e-16
      9110.00  2.31159e-16
      9112.00  2.25866e-16
      9114.00  2.25210e-16
      9116.00  2.29793e-16
      9118.00  2.30863e-16
      9120.00  2.30895e-16
      9122.00  2.30317e-16
      9124.00  2.29150e-16
      9126.00  2.26081e-16
      9128.00  2.26982e-16
      9130.00  2.32075e-16
      9132.00  2.35876e-16
      9134.00  2.36623e-16
      9136.00  2.35397e-16
      9138.00  2.35506e-16
      9140.00  2.36386e-16
      9142.00  2.36329e-16
      9144.00  2.35533e-16
      9146.00  2.33993e-16
      9148.00  2.30792e-16
      9150.00  2.22046e-16
      9152.00  2.20500e-16
      9154.00  2.26865e-16
      9156.00  2.35062e-16
      9158.00  2.36566e-16
      9160.00  2.32085e-16
      9162.00  2.31442e-16
      9164.00  2.32248e-16
      9166.00  2.33060e-16
      9168.00  2.32584e-16
      9170.00  2.29993e-16
      9172.00  2.32362e-16
      9174.00  2.40730e-16
      9176.00  2.46469e-16
      9178.00  2.47000e-16
      9180.00  2.44043e-16
      9182.00  2.42031e-16
      9184.00  2.38472e-16
      9186.00  2.35921e-16
      9188.00  2.33913e-16
      9190.00  2.32640e-16
      9192.00  2.34138e-16
      9194.00  2.41433e-16
      9196.00  2.43003e-16
      9198.00  2.39197e-16
      9200.00  2.33883e-16
      9202.00  2.32064e-16
      9204.00  2.31938e-16
      9206.00  2.32115e-16
      9208.00  2.34194e-16
      9210.00  2.35554e-16
      9212.00  2.34305e-16
      9214.00  2.30666e-16
      9216.00  2.28546e-16
      9218.00  2.25374e-16
      9220.00  2.24410e-16
      9222.00  2.27452e-16
      9224.00  2.33938e-16
      9226.00  2.34655e-16
      9228.00  2.31469e-16
      9230.00  2.28400e-16
      9232.00  2.24440e-16
      9234.00  2.20212e-16
      9236.00  2.19965e-16
      9238.00  2.24651e-16
      9240.00  2.26343e-16
      9242.00  2.25768e-16
      9244.00  2.24793e-16
      9246.00  2.25604e-16
      9248.00  2.26427e-16
      9250.00  2.29840e-16
      9252.00  2.38030e-16
      9254.00  2.44213e-16
      9256.00  2.43526e-16
      9258.00  2.36158e-16
      9260.00  2.34376e-16
      9262.00  2.36184e-16
      9264.00  2.36194e-16
      9266.00  2.32785e-16
      9268.00  2.27023e-16
      9270.00  2.22889e-16
      9272.00  2.17579e-16
      9274.00  2.14972e-16
      9276.00  2.16310e-16
      9278.00  2.19509e-16
      9280.00  2.18249e-16
      9282.00  2.11730e-16
      9284.00  2.09952e-16
      9286.00  2.12751e-16
      9288.00  2.16249e-16
      9290.00  2.15627e-16
      9292.00  2.12576e-16
      9294.00  2.08726e-16
      9296.00  2.01302e-16
      9298.00  1.95471e-16
      9300.00  1.95369e-16
      9302.00  2.02519e-16
      9304.00  1.97761e-16
      9306.00  1.81809e-16
      9308.00  1.69393e-16
      9310.00  1.64153e-16
      9312.00  1.63188e-16
      9314.00  1.60736e-16
      9316.00  1.58288e-16
      9318.00  1.57500e-16
      9320.00  1.59125e-16
      9322.00  1.61961e-16
      9324.00  1.62324e-16
      9326.00  1.53816e-16
      9328.00  1.60351e-16
      9330.00  1.84474e-16
      9332.00  2.11048e-16
      9334.00  2.20954e-16
      9336.00  2.18508e-16
      9338.00  2.18491e-16
      9340.00  2.14888e-16
      9342.00  2.10837e-16
      9344.00  2.08088e-16
      9346.00  2.05438e-16
      9348.00  2.03854e-16
      9350.00  2.01215e-16
      9352.00  2.02193e-16
      9354.00  2.09846e-16
      9356.00  2.22979e-16
      9358.00  2.24224e-16
      9360.00  2.19589e-16
      9362.00  2.09858e-16
      9364.00  1.92485e-16
      9366.00  1.70617e-16
      9368.00  1.55159e-16
      9370.00  1.28601e-16
      9372.00  1.31079e-16
      9374.00  1.64158e-16
      9376.00  2.06940e-16
      9378.00  2.34540e-16
      9380.00  2.63883e-16
      9382.00  2.76363e-16
      9384.00  2.72540e-16
      9386.00  2.64694e-16
      9388.00  2.59086e-16
      9390.00  2.50315e-16
      9392.00  2.47326e-16
      9394.00  2.48165e-16
      9396.00  2.50078e-16
      9398.00  2.53790e-16
      9400.00  2.59551e-16
      9402.00  2.58087e-16
      9404.00  2.48155e-16
      9406.00  2.42906e-16
      9408.00  2.41722e-16
      9410.00  2.43097e-16
      9412.00  2.46265e-16
      9414.00  2.56742e-16
      9416.00  2.58589e-16
      9418.00  2.53109e-16
      9420.00  2.45125e-16
      9422.00  2.39916e-16
      9424.00  2.34666e-16
      9426.00  2.30644e-16
      9428.00  2.28748e-16
      9430.00  2.25952e-16
      9432.00  2.19339e-16
      9434.00  2.06677e-16
      9436.00  2.09095e-16
      9438.00  2.23475e-16
      9440.00  2.39295e-16
      9442.00  2.59214e-16
      9444.00  2.83879e-16
      9446.00  2.80785e-16
      9448.00  2.48916e-16
      9450.00  2.25094e-16
      9452.00  2.03211e-16
      9454.00  1.84668e-16
      9456.00  1.84175e-16
      9458.00  2.09516e-16
      9460.00  2.18596e-16
      9462.00  2.17189e-16
      9464.00  2.14001e-16
      9466.00  2.18115e-16
      9468.00  2.32912e-16
      9470.00  2.31703e-16
      9472.00  2.18096e-16
      9474.00  2.03477e-16
      9476.00  1.92600e-16
      9478.00  1.79631e-16
      9480.00  1.80701e-16
      9482.00  1.96436e-16
      9484.00  2.10798e-16
      9486.00  2.20974e-16
      9488.00  2.29920e-16
      9490.00  2.40928e-16
      9492.00  2.51766e-16
      9494.00  2.65382e-16
      9496.00  2.86414e-16
      9498.00  3.07827e-16
      9500.00  3.09989e-16
      9502.00  2.94985e-16
      9504.00  2.80907e-16
      9506.00  2.58143e-16
      9508.00  2.36810e-16
      9510.00  2.29427e-16
      9512.00  2.34059e-16
      9514.00  2.36608e-16
      9516.00  2.44078e-16
      9518.00  2.50526e-16
      9520.00  2.53046e-16
      9522.00  2.53412e-16
      9524.00  2.51716e-16
      9526.00  2.47569e-16
      9528.00  2.41917e-16
      9530.00  2.33652e-16
      9532.00  2.23129e-16
      9534.00  2.19079e-16
      9536.00  2.20059e-16
      9538.00  2.20983e-16
      9540.00  2.23948e-16
      9542.00  2.27032e-16
      9544.00  2.23710e-16
      9546.00  2.11704e-16
      9548.00  2.06261e-16
      9550.00  2.02546e-16
      9552.00  2.02528e-16
      9554.00  2.09398e-16
      9556.00  2.30417e-16
      9558.00  2.33921e-16
      9560.00  2.25939e-16
      9562.00  2.16128e-16
      9564.00  2.08476e-16
      9566.00  1.99178e-16
      9568.00  1.95763e-16
      9570.00  1.94758e-16
      9572.00  1.98576e-16
      9574.00  2.08991e-16
      9576.00  2.24896e-16
      9578.00  2.36127e-16
      9580.00  2.47505e-16
      9582.00  2.55936e-16
      9584.00  2.61878e-16
      9586.00  2.65346e-16
      9588.00  2.65695e-16
      9590.00  2.62926e-16
      9592.00  2.57856e-16
      9594.00  2.46317e-16
      9596.00  2.36275e-16
      9598.00  2.36684e-16
      9600.00  2.49190e-16
      9602.00  2.52017e-16
      9604.00  2.51890e-16
      9606.00  2.49381e-16
      9608.00  2.44176e-16
      9610.00  2.35162e-16
      9612.00  2.30132e-16
      9614.00  2.25085e-16
      9616.00  2.23593e-16
      9618.00  2.26666e-16
      9620.00  2.33397e-16
      9622.00  2.39680e-16
      9624.00  2.51417e-16
      9626.00  2.55905e-16
      9628.00  2.52220e-16
      9630.00  2.44684e-16
      9632.00  2.41583e-16
      9634.00  2.39778e-16
      9636.00  2.38404e-16
      9638.00  2.36710e-16
      9640.00  2.36683e-16
      9642.00  2.40608e-16
      9644.00  2.50747e-16
      9646.00  2.54559e-16
      9648.00  2.56241e-16
      9650.00  2.55371e-16
      9652.00  2.50602e-16
      9654.00  2.40293e-16
      9656.00  2.39816e-16
      9658.00  2.49018e-16
      9660.00  2.54179e-16
      9662.00  2.53371e-16
      9664.00  2.49081e-16
      9666.00  2.44960e-16
      9668.00  2.36623e-16
      9670.00  2.32878e-16
      9672.00  2.33959e-16
      9674.00  2.37360e-16
      9676.00  2.38708e-16
      9678.00  2.41850e-16
      9680.00  2.40455e-16
      9682.00  2.32576e-16
      9684.00  2.25660e-16
      9686.00  2.27192e-16
      9688.00  2.36168e-16
      9690.00  2.42532e-16
      9692.00  2.52541e-16
      9694.00  2.58894e-16
      9696.00  2.57729e-16
      9698.00  2.49846e-16
      9700.00  2.46339e-16
      9702.00  2.43777e-16
      9704.00  2.41122e-16
      9706.00  2.38224e-16
      9708.00  2.35280e-16
      9710.00  2.32645e-16
      9712.00  2.27182e-16
      9714.00  2.27664e-16
      9716.00  2.35728e-16
      9718.00  2.46592e-16
      9720.00  2.50779e-16
      9722.00  2.52246e-16
      9724.00  2.50986e-16
      9726.00  2.45070e-16
      9728.00  2.38497e-16
      9730.00  2.35243e-16
      9732.00  2.34878e-16
      9734.00  2.31495e-16
      9736.00  2.24728e-16
      9738.00  2.20097e-16
      9740.00  2.20126e-16
      9742.00  2.23788e-16
      9744.00  2.26655e-16
      9746.00  2.30729e-16
      9748.00  2.34733e-16
      9750.00  2.38849e-16
      9752.00  2.43067e-16
      9754.00  2.45674e-16
      9756.00  2.49006e-16
      9758.00  2.48104e-16
      9760.00  2.42213e-16
      9762.00  2.33856e-16
      9764.00  2.27792e-16
      9766.00  2.20382e-16
      9768.00  2.16763e-16
      9770.00  2.15388e-16
      9772.00  2.16544e-16
      9774.00  2.20999e-16
      9776.00  2.32306e-16
      9778.00  2.35046e-16
      9780.00  2.32651e-16
      9782.00  2.28922e-16
      9784.00  2.25567e-16
      9786.00  2.21918e-16
      9788.00  2.14538e-16
      9790.00  1.96289e-16
      9792.00  1.89769e-16
      9794.00  2.00197e-16
      9796.00  2.21476e-16
      9798.00  2.31270e-16
      9800.00  2.37631e-16
      9802.00  2.41632e-16
      9804.00  2.42915e-16
      9806.00  2.41753e-16
      9808.00  2.38886e-16
      9810.00  2.29316e-16
      9812.00  2.27748e-16
      9814.00  2.31841e-16
      9816.00  2.37886e-16
      9818.00  2.42830e-16
      9820.00  2.48505e-16
      9822.00  2.53742e-16
      9824.00  2.60766e-16
      9826.00  2.65042e-16
      9828.00  2.64362e-16
      9830.00  2.59309e-16
      9832.00  2.56633e-16
      9834.00  2.54860e-16
      9836.00  2.51612e-16
      9838.00  2.46271e-16
      9840.00  2.39566e-16
      9842.00  2.34337e-16
      9844.00  2.27877e-16
      9846.00  2.25000e-16
      9848.00  2.26125e-16
      9850.00  2.29150e-16
      9852.00  2.30479e-16
      9854.00  2.32953e-16
      9856.00  2.32437e-16
      9858.00  2.28550e-16
      9860.00  2.24593e-16
      9862.00  2.23303e-16
      9864.00  2.22997e-16
      9866.00  2.24855e-16
      9868.00  2.29400e-16
      9870.00  2.34392e-16
      9872.00  2.40032e-16
      9874.00  2.47660e-16
      9876.00  2.46705e-16
      9878.00  2.35340e-16
      9880.00  2.28648e-16
      9882.00  2.28942e-16
      9884.00  2.32757e-16
      9886.00  2.30781e-16
      9888.00  2.22782e-16
      9890.00  2.19913e-16
      9892.00  2.22308e-16
      9894.00  2.26319e-16
      9896.00  2.26262e-16
      9898.00  2.19759e-16
      9900.00  2.21987e-16
      9902.00  2.32215e-16
      9904.00  2.42653e-16
      9906.00  2.47632e-16
      9908.00  2.54310e-16
      9910.00  2.45120e-16
      9912.00  2.14027e-16
      9914.00  1.90253e-16
      9916.00  1.83774e-16
      9918.00  1.87993e-16
      9920.00  1.96890e-16
      9922.00  2.21071e-16
      9924.00  2.37194e-16
      9926.00  2.42717e-16
      9928.00  2.42307e-16
      9930.00  2.45599e-16
      9932.00  2.46617e-16
      9934.00  2.52174e-16
      9936.00  2.63158e-16
      9938.00  2.75891e-16
      9940.00  2.84321e-16
      9942.00  2.99314e-16
      9944.00  2.94731e-16
      9946.00  2.65631e-16
      9948.00  2.39182e-16
      9950.00  2.38177e-16
