# SIMPLE = T / Written by IDL: Sun Jul 22 16:42:32 2012 
# BITPIX = -32 / IEEE single precision floating point 
# NAXIS = 1 / Number of axes 
# NAXIS1 = 3651 / 
# EXTEND = T / File may contain extensions 
# ORIGIN = 'NOAO-IRAF FITS Image Kernel July 2003' / FITS file originator 
# DATE = '2012-07-22T12:52:21' / Date FITS file was generated 
# IRAF-TLM= '2012-07-22T12:52:21' / Time of last modification 
# COMMENT FITS (Flexible Image Transport System) format defined in Astronomy and
# COMMENT Astrophysics Supplement Series v44/p363, v44/p371, v73/p359, v73/p365.
# COMMENT Contact the NASA Science Office of Standards and Technology for the 
# COMMENT FITS Definition document #100 and other FITS information. 
# OBJECT = 'PTF12guy' / object title 
# OBSERVER= 'I. Arcavi C. White A. Howe S. Raskutti' / observer 
# IMGTYPE = ' ' / observation type 
# GAIN = 2.8 / e-/adu 
# RON = 8.5 / system noise 
# DICHROIC= 'D55 ' / Dichroic 
# APERTURE= '1.5 ' / aperture (arcsecs) 
# TURRET = 'APERTURE' / turret position 
# LAMPS = '0000000 ' / lamps: D-FeAr-Hg-Ar-Ne-He-InCand 
# RFILTER = 'OPEN ' / filter wheel 
# OEXPTIME= 900. / originaly req. exposure time 
# EXPTIME = 900. / actual exposure time 
# UTSHUT = '2012-07-21T07:07:37.452' / UT shutter open 
# NAMPSXY = '1 1 ' / number of amplifiers in y x 
# CCDSUM = '1 1 ' / binning in x y 
# ASEC1 = '[1:4141,1:440]' / amplifier section 1(LL) 
# BSEC1 = '[4122:4141,1:440]' / bias section 1(LL) 
# CSEC1 = '[1:4121,1:440]' / ccd section 1(LL) 
# DSEC1 = '[1:4121,1:440]' / data section 1(LL) 
# TSEC1 = '[8:4121,1:440]' / trim section 1(LL) 
# ROISEC = '[1:4114,785:1224]' / roi section 
# DETID = 'LBNL_4Kx2K_1' / detector ID 
# DETNUM = '1 ' / Detector Number 
# DETNAM = 'LBNL_4Kx2K' / detector name 
# FPA = 'DBSP_RED2' / focal plan array 
# UTC = '203 07:07:37.5' / <elapsed days> <time-obs> 
# UT = '07:07:37.5' / time-obs 
# OBSLST = '19:17:59.9' / lst-obs 
# RA = '16:48:15.58' / Right Ascencion 
# DEC = '+30:25:48.6' / Declination 
# HOURANG = 'W02:29:13.5' / Hour angle, TCS format 
# HA = '+02:29:13.5' / Hour angle 
# AIRMASS = '1.196503' / Airmass 
# TELID = '200 ' / telescope ID 
# TELFOCUS= '39.92 mm' / focus position 
# CASSPA = '74.00 ' / cass ring angle 
# PARALLAC= '74.82 ' / parallactic angle 
# DHE = 'SDSU Gen III' / controller info 
# CCDTEMP = '118.013 ' / detector mount temp 
# SOFTVER = '3.4 ' / software version 
# HDR_REV = '4.3 ' / gfits version 
# GCOMMENT= ' ' / comment 
# ANGLE = '24 deg 38 min' / Grating Angle 
# GRATING = '316/7500' / lines/mm & Blaze 
# CRVAL1 = 3200.00 / 
# OBSNUM = 95 
# CRPIX1 = 1 / 
# DATE-OBS= '2012-07-21' 
# OBSERVAT= 'palomar ' 
# TIME = '07:07:37.5' 
# OPT_PA = 74.518319839053 
# IMCMB001= 'red0095 ' 
# IMCMB002= 'red0096 ' 
# NCOMBINE= 2 
# TELESCOP= 'P200 ' 
# ST = '19:17:59.26' 
# EPOCH = 2012.55248997072 
# UTMIDDLE= '2012-07-21T07:15:07.50' 
# BANDID1 = 'spectrum - background fit, weights variance, clean yes' 
# BANDID2 = 'raw - background fit, weights none, clean no' 
# BANDID3 = 'background - background fit' 
# BANDID4 = 'sigma - background fit, weights variance, clean yes' 
# APNUM1 = '1 1 151.39 165.39' 
# DC-FLAG = 0 
# DCLOG1 = 'REFSPEC1 = arc_redc.ms' 
# FLUX_Z = 1.04344100000 / 
# FLUX_NUM= 110 / 
# FLUX_OBJ= 'BD+28d4211' / 
# OBS_PA = 74.0000000000 /observed position angle 
# CDELT1 = 2.00000 / 
# CTYPE1 = 'LINEAR ' / 
# W_RANGE = '5200 10500' / 
# BSTAR_Z = 1.04344100000 / 
# BSTARNUM= 110 / 
# BSTAROBJ= 'BD+28d4211' / 
# BARYVEL = -12.7671639320 / 
# SKYSHIFT= 2.74848120816 / 
# ATMSHIFT= 1.29783863323 / 
# EXTRACT = 'optimal ' / 
# REDUCER = 'ofer ' / 
# RED_DATE= 'Sun Jul 22 16:42:32 2012' /EPOCH OF REDUCTION 
# END 
# 
      3200.00  3.51754e-17
      3202.00 -4.99382e-17
      3204.00  9.81609e-17
      3206.00  1.61524e-16
      3208.00  2.48840e-17
      3210.00  4.80830e-17
      3212.00 -1.58147e-17
      3214.00  8.87643e-17
      3216.00  3.90968e-17
      3218.00  6.09099e-17
      3220.00  3.47080e-17
      3222.00  2.54023e-17
      3224.00  3.52620e-17
      3226.00  3.84310e-17
      3228.00  5.13149e-17
      3230.00  5.19983e-17
      3232.00  7.87655e-17
      3234.00  8.28552e-17
      3236.00  5.85303e-17
      3238.00  1.15420e-16
      3240.00  4.17147e-17
      3242.00  2.97599e-17
      3244.00  7.65050e-17
      3246.00  6.71240e-17
      3248.00  3.85565e-17
      3250.00  6.11298e-17
      3252.00  5.63204e-17
      3254.00  4.77428e-17
      3256.00  8.05797e-17
      3258.00  6.70227e-17
      3260.00  5.98072e-17
      3262.00 -2.06258e-17
      3264.00  4.18760e-17
      3266.00  3.07215e-17
      3268.00 -2.36144e-19
      3270.00  1.00736e-16
      3272.00  8.07010e-17
      3274.00  5.03987e-17
      3276.00  6.31462e-17
      3278.00  7.30182e-17
      3280.00  8.33633e-17
      3282.00  7.38608e-17
      3284.00  4.41304e-17
      3286.00  2.95805e-17
      3288.00  3.20762e-17
      3290.00  4.32328e-17
      3292.00  6.38544e-17
      3294.00  4.36078e-17
      3296.00  8.00208e-17
      3298.00  4.09882e-17
      3300.00  4.57529e-17
      3302.00  6.10974e-17
      3304.00  1.01663e-16
      3306.00  4.27569e-17
      3308.00  9.98398e-17
      3310.00  7.48407e-17
      3312.00  8.22597e-17
      3314.00  6.46556e-17
      3316.00  7.62010e-17
      3318.00  5.30847e-17
      3320.00  6.93619e-17
      3322.00  8.68143e-17
      3324.00  7.56359e-17
      3326.00  8.73093e-17
      3328.00  9.24747e-17
      3330.00  5.58912e-17
      3332.00  7.10172e-17
      3334.00  9.19940e-17
      3336.00  7.82719e-17
      3338.00  7.08924e-17
      3340.00  6.32827e-17
      3342.00  8.07835e-17
      3344.00  7.07303e-17
      3346.00  7.75269e-17
      3348.00  8.57145e-17
      3350.00  8.60997e-17
      3352.00  5.72153e-17
      3354.00  9.73577e-17
      3356.00  6.48329e-17
      3358.00  7.52654e-17
      3360.00  6.13592e-17
      3362.00  5.12533e-17
      3364.00  8.81351e-17
      3366.00  8.29887e-17
      3368.00  9.81979e-17
      3370.00  8.05901e-17
      3372.00  1.17910e-16
      3374.00  1.08916e-16
      3376.00  9.78779e-17
      3378.00  7.09633e-17
      3380.00  7.36686e-17
      3382.00  1.16983e-16
      3384.00  1.01226e-16
      3386.00  6.49795e-17
      3388.00  1.27835e-16
      3390.00  1.02412e-16
      3392.00  1.06905e-16
      3394.00  8.59649e-17
      3396.00  1.05769e-16
      3398.00  9.18140e-17
      3400.00  7.10138e-17
      3402.00  6.66633e-17
      3404.00  6.44269e-17
      3406.00  9.39809e-17
      3408.00  9.15483e-17
      3410.00  9.11789e-17
      3412.00  1.02416e-16
      3414.00  7.17200e-17
      3416.00  7.60198e-17
      3418.00  8.02766e-17
      3420.00  8.69101e-17
      3422.00  8.14503e-17
      3424.00  5.30102e-17
      3426.00  1.05773e-16
      3428.00  6.92228e-17
      3430.00  6.33033e-17
      3432.00  8.74343e-17
      3434.00  7.90018e-17
      3436.00  6.70090e-17
      3438.00  5.88569e-17
      3440.00  1.01021e-16
      3442.00  1.17478e-16
      3444.00  9.51906e-17
      3446.00  5.22724e-17
      3448.00  8.24227e-17
      3450.00  1.02094e-16
      3452.00  5.92663e-17
      3454.00  4.14984e-17
      3456.00  7.38336e-17
      3458.00  6.60026e-17
      3460.00  4.94739e-17
      3462.00  5.51270e-17
      3464.00  6.60386e-17
      3466.00  5.85065e-17
      3468.00  6.55278e-17
      3470.00  7.20771e-17
      3472.00  8.54068e-17
      3474.00  9.95678e-17
      3476.00  5.97015e-17
      3478.00  7.06266e-17
      3480.00  7.23580e-17
      3482.00  5.96877e-17
      3484.00  8.41365e-17
      3486.00  9.52504e-17
      3488.00  6.52754e-17
      3490.00  7.69576e-17
      3492.00  7.50387e-17
      3494.00  5.65304e-17
      3496.00  8.38461e-17
      3498.00  9.78931e-17
      3500.00  7.31236e-17
      3502.00  8.26192e-17
      3504.00  8.61453e-17
      3506.00  8.30757e-17
      3508.00  6.57998e-17
      3510.00  7.95057e-17
      3512.00  7.43204e-17
      3514.00  5.55577e-17
      3516.00  7.71703e-17
      3518.00  8.16563e-17
      3520.00  7.88723e-17
      3522.00  5.75854e-17
      3524.00  6.41541e-17
      3526.00  7.81292e-17
      3528.00  7.41550e-17
      3530.00  6.85342e-17
      3532.00  7.12713e-17
      3534.00  7.64686e-17
      3536.00  8.22617e-17
      3538.00  6.98499e-17
      3540.00  8.63043e-17
      3542.00  7.60356e-17
      3544.00  6.80376e-17
      3546.00  7.65698e-17
      3548.00  7.19140e-17
      3550.00  6.91126e-17
      3552.00  7.60805e-17
      3554.00  7.34225e-17
      3556.00  6.84875e-17
      3558.00  8.07004e-17
      3560.00  8.46949e-17
      3562.00  9.50587e-17
      3564.00  8.78989e-17
      3566.00  9.02102e-17
      3568.00  9.19588e-17
      3570.00  9.08539e-17
      3572.00  9.07326e-17
      3574.00  9.09750e-17
      3576.00  1.08599e-16
      3578.00  9.38399e-17
      3580.00  9.77835e-17
      3582.00  8.75552e-17
      3584.00  8.01782e-17
      3586.00  9.59020e-17
      3588.00  1.00110e-16
      3590.00  9.43878e-17
      3592.00  9.75094e-17
      3594.00  8.57578e-17
      3596.00  7.60758e-17
      3598.00  8.27412e-17
      3600.00  8.61414e-17
      3602.00  8.49391e-17
      3604.00  8.91984e-17
      3606.00  9.64385e-17
      3608.00  9.26632e-17
      3610.00  9.16347e-17
      3612.00  9.45080e-17
      3614.00  8.60531e-17
      3616.00  8.28535e-17
      3618.00  7.40754e-17
      3620.00  7.68079e-17
      3622.00  9.69199e-17
      3624.00  7.63819e-17
      3626.00  9.30198e-17
      3628.00  8.56470e-17
      3630.00  9.72744e-17
      3632.00  9.33920e-17
      3634.00  1.06816e-16
      3636.00  8.99885e-17
      3638.00  1.01295e-16
      3640.00  8.68520e-17
      3642.00  7.83746e-17
      3644.00  8.75653e-17
      3646.00  1.08955e-16
      3648.00  8.74387e-17
      3650.00  9.19933e-17
      3652.00  7.74931e-17
      3654.00  8.02927e-17
      3656.00  7.06216e-17
      3658.00  9.12108e-17
      3660.00  8.93278e-17
      3662.00  1.00145e-16
      3664.00  1.05908e-16
      3666.00  9.60070e-17
      3668.00  7.76197e-17
      3670.00  9.10983e-17
      3672.00  8.16758e-17
      3674.00  7.84039e-17
      3676.00  7.61605e-17
      3678.00  7.70593e-17
      3680.00  8.44163e-17
      3682.00  8.14688e-17
      3684.00  9.08134e-17
      3686.00  8.53607e-17
      3688.00  7.18423e-17
      3690.00  8.42320e-17
      3692.00  7.64656e-17
      3694.00  7.93411e-17
      3696.00  7.74038e-17
      3698.00  7.57860e-17
      3700.00  8.15825e-17
      3702.00  7.51920e-17
      3704.00  6.59168e-17
      3706.00  6.48572e-17
      3708.00  5.57122e-17
      3710.00  7.06385e-17
      3712.00  7.00979e-17
      3714.00  6.89747e-17
      3716.00  7.19351e-17
      3718.00  6.13980e-17
      3720.00  6.92372e-17
      3722.00  6.74129e-17
      3724.00  8.59380e-17
      3726.00  6.80935e-17
      3728.00  7.57385e-17
      3730.00  6.98296e-17
      3732.00  6.24688e-17
      3734.00  6.87661e-17
      3736.00  7.93982e-17
      3738.00  8.99792e-17
      3740.00  7.33104e-17
      3742.00  6.84358e-17
      3744.00  7.39984e-17
      3746.00  5.81865e-17
      3748.00  5.78670e-17
      3750.00  6.21671e-17
      3752.00  7.66330e-17
      3754.00  6.30815e-17
      3756.00  6.86317e-17
      3758.00  6.59582e-17
      3760.00  7.00427e-17
      3762.00  6.84494e-17
      3764.00  6.62867e-17
      3766.00  6.22012e-17
      3768.00  7.63806e-17
      3770.00  7.29444e-17
      3772.00  7.73953e-17
      3774.00  7.74356e-17
      3776.00  7.60888e-17
      3778.00  7.76095e-17
      3780.00  7.68397e-17
      3782.00  5.62935e-17
      3784.00  7.11019e-17
      3786.00  6.81248e-17
      3788.00  9.12228e-17
      3790.00  7.35764e-17
      3792.00  6.87600e-17
      3794.00  8.24003e-17
      3796.00  7.86072e-17
      3798.00  7.79769e-17
      3800.00  7.72319e-17
      3802.00  9.30137e-17
      3804.00  8.12646e-17
      3806.00  7.20474e-17
      3808.00  8.20005e-17
      3810.00  8.78740e-17
      3812.00  9.08530e-17
      3814.00  9.43169e-17
      3816.00  9.76491e-17
      3818.00  9.89291e-17
      3820.00  8.54802e-17
      3822.00  1.05490e-16
      3824.00  8.69993e-17
      3826.00  8.40355e-17
      3828.00  1.02185e-16
      3830.00  1.12862e-16
      3832.00  9.28775e-17
      3834.00  9.68205e-17
      3836.00  1.00865e-16
      3838.00  1.00037e-16
      3840.00  9.45095e-17
      3842.00  8.89909e-17
      3844.00  8.90479e-17
      3846.00  7.38498e-17
      3848.00  8.05414e-17
      3850.00  8.30647e-17
      3852.00  8.70794e-17
      3854.00  8.40607e-17
      3856.00  8.45327e-17
      3858.00  8.06698e-17
      3860.00  8.40113e-17
      3862.00  7.69598e-17
      3864.00  8.43708e-17
      3866.00  8.27766e-17
      3868.00  8.63165e-17
      3870.00  8.20444e-17
      3872.00  8.97229e-17
      3874.00  8.75128e-17
      3876.00  8.37463e-17
      3878.00  8.78242e-17
      3880.00  9.38310e-17
      3882.00  9.02045e-17
      3884.00  8.61654e-17
      3886.00  9.87323e-17
      3888.00  9.15116e-17
      3890.00  9.54853e-17
      3892.00  9.01899e-17
      3894.00  8.94518e-17
      3896.00  9.96137e-17
      3898.00  9.00178e-17
      3900.00  7.19955e-17
      3902.00  8.98171e-17
      3904.00  9.40928e-17
      3906.00  9.35008e-17
      3908.00  8.29374e-17
      3910.00  9.08465e-17
      3912.00  9.47793e-17
      3914.00  8.35534e-17
      3916.00  8.25018e-17
      3918.00  8.76939e-17
      3920.00  8.44446e-17
      3922.00  6.97146e-17
      3924.00  8.57457e-17
      3926.00  8.61544e-17
      3928.00  7.35739e-17
      3930.00  8.29158e-17
      3932.00  8.83830e-17
      3934.00  8.60445e-17
      3936.00  8.26413e-17
      3938.00  7.37381e-17
      3940.00  7.93138e-17
      3942.00  8.80041e-17
      3944.00  8.24798e-17
      3946.00  9.03104e-17
      3948.00  8.58072e-17
      3950.00  8.42734e-17
      3952.00  9.37040e-17
      3954.00  8.78114e-17
      3956.00  8.83825e-17
      3958.00  8.57073e-17
      3960.00  9.75011e-17
      3962.00  9.07599e-17
      3964.00  9.08137e-17
      3966.00  8.08896e-17
      3968.00  8.90294e-17
      3970.00  9.37269e-17
      3972.00  8.88358e-17
      3974.00  8.50715e-17
      3976.00  8.17880e-17
      3978.00  9.08746e-17
      3980.00  8.70092e-17
      3982.00  8.71665e-17
      3984.00  8.30650e-17
      3986.00  8.43887e-17
      3988.00  9.02516e-17
      3990.00  8.38309e-17
      3992.00  9.16433e-17
      3994.00  8.64006e-17
      3996.00  8.07581e-17
      3998.00  8.13027e-17
      4000.00  8.15553e-17
      4002.00  8.23243e-17
      4004.00  9.90936e-17
      4006.00  9.92539e-17
      4008.00  9.39562e-17
      4010.00  8.86621e-17
      4012.00  9.05973e-17
      4014.00  8.56413e-17
      4016.00  8.65117e-17
      4018.00  8.93098e-17
      4020.00  8.32455e-17
      4022.00  9.59147e-17
      4024.00  9.99601e-17
      4026.00  8.73744e-17
      4028.00  8.81476e-17
      4030.00  8.75603e-17
      4032.00  7.77868e-17
      4034.00  8.72503e-17
      4036.00  8.39636e-17
      4038.00  8.52072e-17
      4040.00  9.39712e-17
      4042.00  9.14022e-17
      4044.00  1.07644e-16
      4046.00  8.32826e-17
      4048.00  8.81791e-17
      4050.00  8.58815e-17
      4052.00  9.37944e-17
      4054.00  9.70979e-17
      4056.00  9.82098e-17
      4058.00  1.03038e-16
      4060.00  9.10571e-17
      4062.00  9.99592e-17
      4064.00  9.51018e-17
      4066.00  9.27822e-17
      4068.00  9.77045e-17
      4070.00  9.62279e-17
      4072.00  1.02535e-16
      4074.00  1.12147e-16
      4076.00  8.99758e-17
      4078.00  9.55141e-17
      4080.00  9.08685e-17
      4082.00  9.53126e-17
      4084.00  9.63834e-17
      4086.00  9.42845e-17
      4088.00  1.04738e-16
      4090.00  1.07673e-16
      4092.00  1.03401e-16
      4094.00  1.05967e-16
      4096.00  1.12221e-16
      4098.00  1.05220e-16
      4100.00  1.02455e-16
      4102.00  1.03427e-16
      4104.00  1.04457e-16
      4106.00  1.04547e-16
      4108.00  1.02853e-16
      4110.00  1.05515e-16
      4112.00  1.09259e-16
      4114.00  1.01111e-16
      4116.00  1.11377e-16
      4118.00  1.07559e-16
      4120.00  9.91457e-17
      4122.00  1.02546e-16
      4124.00  1.06441e-16
      4126.00  1.06875e-16
      4128.00  1.05549e-16
      4130.00  9.65669e-17
      4132.00  9.95423e-17
      4134.00  1.03995e-16
      4136.00  1.00572e-16
      4138.00  1.03358e-16
      4140.00  9.83682e-17
      4142.00  1.05450e-16
      4144.00  1.00694e-16
      4146.00  1.04427e-16
      4148.00  1.11938e-16
      4150.00  1.13515e-16
      4152.00  1.01829e-16
      4154.00  9.39305e-17
      4156.00  1.05166e-16
      4158.00  9.03742e-17
      4160.00  9.72769e-17
      4162.00  9.83544e-17
      4164.00  1.05391e-16
      4166.00  9.54472e-17
      4168.00  9.28460e-17
      4170.00  9.71750e-17
      4172.00  9.32767e-17
      4174.00  9.42767e-17
      4176.00  9.46567e-17
      4178.00  9.54769e-17
      4180.00  9.20529e-17
      4182.00  9.32527e-17
      4184.00  9.74649e-17
      4186.00  9.92493e-17
      4188.00  9.39688e-17
      4190.00  9.48130e-17
      4192.00  1.04907e-16
      4194.00  9.84660e-17
      4196.00  9.63298e-17
      4198.00  1.06066e-16
      4200.00  1.08069e-16
      4202.00  1.09492e-16
      4204.00  1.09286e-16
      4206.00  1.07703e-16
      4208.00  1.08310e-16
      4210.00  1.05906e-16
      4212.00  1.09871e-16
      4214.00  1.09326e-16
      4216.00  1.14803e-16
      4218.00  1.05145e-16
      4220.00  1.08692e-16
      4222.00  1.11876e-16
      4224.00  1.18507e-16
      4226.00  1.13755e-16
      4228.00  1.06368e-16
      4230.00  1.03386e-16
      4232.00  9.95831e-17
      4234.00  1.01128e-16
      4236.00  1.01331e-16
      4238.00  9.50776e-17
      4240.00  9.87165e-17
      4242.00  9.18819e-17
      4244.00  9.42217e-17
      4246.00  9.49221e-17
      4248.00  1.04453e-16
      4250.00  1.00907e-16
      4252.00  1.01345e-16
      4254.00  9.64839e-17
      4256.00  9.41117e-17
      4258.00  9.46043e-17
      4260.00  9.74107e-17
      4262.00  1.10258e-16
      4264.00  1.16194e-16
      4266.00  1.20959e-16
      4268.00  1.16686e-16
      4270.00  9.10675e-17
      4272.00  9.42610e-17
      4274.00  8.64858e-17
      4276.00  1.04431e-16
      4278.00  1.04242e-16
      4280.00  1.05151e-16
      4282.00  1.05423e-16
      4284.00  1.06904e-16
      4286.00  1.01023e-16
      4288.00  1.01952e-16
      4290.00  9.22844e-17
      4292.00  1.00275e-16
      4294.00  1.01819e-16
      4296.00  1.01540e-16
      4298.00  1.09716e-16
      4300.00  1.07055e-16
      4302.00  1.02136e-16
      4304.00  1.02560e-16
      4306.00  1.04415e-16
      4308.00  1.04759e-16
      4310.00  9.05114e-17
      4312.00  8.88701e-17
      4314.00  8.73729e-17
      4316.00  9.27774e-17
      4318.00  9.35419e-17
      4320.00  8.90019e-17
      4322.00  9.62631e-17
      4324.00  8.63000e-17
      4326.00  8.51691e-17
      4328.00  9.27215e-17
      4330.00  9.19225e-17
      4332.00  8.50361e-17
      4334.00  8.49382e-17
      4336.00  8.36900e-17
      4338.00  8.57080e-17
      4340.00  7.59945e-17
      4342.00  7.95354e-17
      4344.00  7.64012e-17
      4346.00  7.36619e-17
      4348.00  8.02187e-17
      4350.00  7.79370e-17
      4352.00  8.86942e-17
      4354.00  7.79001e-17
      4356.00  8.80829e-17
      4358.00  8.92859e-17
      4360.00  6.63068e-17
      4362.00  6.80956e-17
      4364.00  7.31539e-17
      4366.00  8.30367e-17
      4368.00  8.37868e-17
      4370.00  7.68816e-17
      4372.00  6.85321e-17
      4374.00  6.85691e-17
      4376.00  7.20116e-17
      4378.00  7.96802e-17
      4380.00  7.81634e-17
      4382.00  6.80939e-17
      4384.00  6.99981e-17
      4386.00  8.26482e-17
      4388.00  7.88450e-17
      4390.00  8.15989e-17
      4392.00  8.72470e-17
      4394.00  8.77436e-17
      4396.00  9.11896e-17
      4398.00  9.78576e-17
      4400.00  9.98400e-17
      4402.00  9.18010e-17
      4404.00  1.04336e-16
      4406.00  1.05351e-16
      4408.00  1.10764e-16
      4410.00  1.05013e-16
      4412.00  1.06065e-16
      4414.00  1.01909e-16
      4416.00  1.05803e-16
      4418.00  1.11574e-16
      4420.00  1.11651e-16
      4422.00  1.10164e-16
      4424.00  1.07220e-16
      4426.00  1.10004e-16
      4428.00  1.05212e-16
      4430.00  1.05815e-16
      4432.00  9.68686e-17
      4434.00  1.08686e-16
      4436.00  1.03682e-16
      4438.00  1.09155e-16
      4440.00  1.06223e-16
      4442.00  1.13387e-16
      4444.00  1.06468e-16
      4446.00  1.04347e-16
      4448.00  1.02487e-16
      4450.00  1.11601e-16
      4452.00  1.03598e-16
      4454.00  9.88090e-17
      4456.00  1.08913e-16
      4458.00  1.06516e-16
      4460.00  1.08253e-16
      4462.00  1.12548e-16
      4464.00  1.10776e-16
      4466.00  1.19547e-16
      4468.00  1.17561e-16
      4470.00  1.27787e-16
      4472.00  1.22804e-16
      4474.00  1.27740e-16
      4476.00  1.20361e-16
      4478.00  1.23620e-16
      4480.00  1.19741e-16
      4482.00  1.24093e-16
      4484.00  1.16841e-16
      4486.00  1.21794e-16
      4488.00  1.21452e-16
      4490.00  1.22401e-16
      4492.00  1.24289e-16
      4494.00  1.14289e-16
      4496.00  1.19439e-16
      4498.00  1.15917e-16
      4500.00  1.06819e-16
      4502.00  1.12118e-16
      4504.00  1.26178e-16
      4506.00  1.17934e-16
      4508.00  1.22836e-16
      4510.00  1.15952e-16
      4512.00  1.22535e-16
      4514.00  1.28302e-16
      4516.00  1.27396e-16
      4518.00  1.29051e-16
      4520.00  1.25688e-16
      4522.00  1.27766e-16
      4524.00  1.24360e-16
      4526.00  1.30208e-16
      4528.00  1.24906e-16
      4530.00  1.10093e-16
      4532.00  1.19369e-16
      4534.00  1.09621e-16
      4536.00  1.10196e-16
      4538.00  9.90498e-17
      4540.00  1.02712e-16
      4542.00  1.03185e-16
      4544.00  1.05810e-16
      4546.00  1.14352e-16
      4548.00  1.03995e-16
      4550.00  1.17639e-16
      4552.00  1.19266e-16
      4554.00  1.24741e-16
      4556.00  1.23328e-16
      4558.00  1.17878e-16
      4560.00  1.25229e-16
      4562.00  1.21302e-16
      4564.00  1.17823e-16
      4566.00  1.24464e-16
      4568.00  1.27556e-16
      4570.00  1.23794e-16
      4572.00  1.20259e-16
      4574.00  1.17589e-16
      4576.00  1.21155e-16
      4578.00  1.21818e-16
      4580.00  1.28619e-16
      4582.00  1.19459e-16
      4584.00  1.24066e-16
      4586.00  1.22853e-16
      4588.00  1.18091e-16
      4590.00  1.28572e-16
      4592.00  1.29493e-16
      4594.00  1.33208e-16
      4596.00  1.27999e-16
      4598.00  1.35795e-16
      4600.00  1.28095e-16
      4602.00  1.26991e-16
      4604.00  1.29032e-16
      4606.00  1.33829e-16
      4608.00  1.31726e-16
      4610.00  1.28083e-16
      4612.00  1.23446e-16
      4614.00  1.25403e-16
      4616.00  1.25678e-16
      4618.00  1.32679e-16
      4620.00  1.35815e-16
      4622.00  1.24025e-16
      4624.00  1.32466e-16
      4626.00  1.34072e-16
      4628.00  1.25969e-16
      4630.00  1.26925e-16
      4632.00  1.29011e-16
      4634.00  1.34280e-16
      4636.00  1.30517e-16
      4638.00  1.27485e-16
      4640.00  1.27711e-16
      4642.00  1.28560e-16
      4644.00  1.34659e-16
      4646.00  1.27922e-16
      4648.00  1.26789e-16
      4650.00  1.21668e-16
      4652.00  1.28584e-16
      4654.00  1.23527e-16
      4656.00  1.31054e-16
      4658.00  1.35727e-16
      4660.00  1.26314e-16
      4662.00  1.29078e-16
      4664.00  1.20081e-16
      4666.00  1.17834e-16
      4668.00  1.30056e-16
      4670.00  1.34225e-16
      4672.00  1.22127e-16
      4674.00  1.23340e-16
      4676.00  1.19677e-16
      4678.00  1.20223e-16
      4680.00  1.20984e-16
      4682.00  1.21929e-16
      4684.00  1.19945e-16
      4686.00  1.20845e-16
      4688.00  1.14111e-16
      4690.00  1.15827e-16
      4692.00  1.14244e-16
      4694.00  1.15001e-16
      4696.00  1.10125e-16
      4698.00  1.14042e-16
      4700.00  1.14508e-16
      4702.00  1.18927e-16
      4704.00  1.09754e-16
      4706.00  1.30334e-16
      4708.00  1.20151e-16
      4710.00  1.15595e-16
      4712.00  1.15157e-16
      4714.00  1.20514e-16
      4716.00  1.24922e-16
      4718.00  1.17185e-16
      4720.00  1.21326e-16
      4722.00  1.21111e-16
      4724.00  1.17644e-16
      4726.00  1.21977e-16
      4728.00  1.25193e-16
      4730.00  1.29646e-16
      4732.00  1.30092e-16
      4734.00  1.29983e-16
      4736.00  1.34615e-16
      4738.00  1.20984e-16
      4740.00  1.16921e-16
      4742.00  1.33429e-16
      4744.00  1.29707e-16
      4746.00  1.22821e-16
      4748.00  1.25826e-16
      4750.00  1.18230e-16
      4752.00  1.22300e-16
      4754.00  1.28045e-16
      4756.00  1.29068e-16
      4758.00  1.33246e-16
      4760.00  1.32342e-16
      4762.00  1.29743e-16
      4764.00  1.29275e-16
      4766.00  1.26601e-16
      4768.00  1.23357e-16
      4770.00  1.25636e-16
      4772.00  1.18741e-16
      4774.00  1.16815e-16
      4776.00  1.13738e-16
      4778.00  1.27817e-16
      4780.00  1.18736e-16
      4782.00  1.23311e-16
      4784.00  1.26089e-16
      4786.00  1.12526e-16
      4788.00  1.19162e-16
      4790.00  1.23275e-16
      4792.00  1.13326e-16
      4794.00  1.21031e-16
      4796.00  1.15175e-16
      4798.00  1.14269e-16
      4800.00  1.14155e-16
      4802.00  1.10185e-16
      4804.00  1.16590e-16
      4806.00  1.11920e-16
      4808.00  1.17733e-16
      4810.00  1.12773e-16
      4812.00  1.13838e-16
      4814.00  1.11050e-16
      4816.00  1.18251e-16
      4818.00  1.21048e-16
      4820.00  1.19034e-16
      4822.00  1.02878e-16
      4824.00  1.11552e-16
      4826.00  1.13081e-16
      4828.00  1.15163e-16
      4830.00  1.12656e-16
      4832.00  1.03970e-16
      4834.00  8.77353e-17
      4836.00  9.92905e-17
      4838.00  1.00775e-16
      4840.00  1.08905e-16
      4842.00  1.06620e-16
      4844.00  1.03450e-16
      4846.00  1.00375e-16
      4848.00  1.00401e-16
      4850.00  1.09423e-16
      4852.00  1.07694e-16
      4854.00  1.01210e-16
      4856.00  1.09892e-16
      4858.00  1.02844e-16
      4860.00  1.09521e-16
      4862.00  1.04275e-16
      4864.00  9.43484e-17
      4866.00  1.00883e-16
      4868.00  9.92846e-17
      4870.00  9.95318e-17
      4872.00  1.05527e-16
      4874.00  9.67562e-17
      4876.00  1.04565e-16
      4878.00  1.02633e-16
      4880.00  9.41894e-17
      4882.00  1.06375e-16
      4884.00  8.46506e-17
      4886.00  8.74264e-17
      4888.00  9.40987e-17
      4890.00  9.80364e-17
      4892.00  1.00906e-16
      4894.00  1.02751e-16
      4896.00  1.00746e-16
      4898.00  9.60223e-17
      4900.00  1.04357e-16
      4902.00  9.45436e-17
      4904.00  1.01999e-16
      4906.00  1.03044e-16
      4908.00  9.45233e-17
      4910.00  9.32486e-17
      4912.00  1.00375e-16
      4914.00  9.28705e-17
      4916.00  9.44574e-17
      4918.00  8.74246e-17
      4920.00  8.53645e-17
      4922.00  8.79545e-17
      4924.00  8.90017e-17
      4926.00  8.53296e-17
      4928.00  9.17218e-17
      4930.00  8.64495e-17
      4932.00  9.71945e-17
      4934.00  9.69271e-17
      4936.00  1.02318e-16
      4938.00  1.03383e-16
      4940.00  1.04433e-16
      4942.00  1.00281e-16
      4944.00  1.06297e-16
      4946.00  1.05183e-16
      4948.00  9.13916e-17
      4950.00  1.07974e-16
      4952.00  1.10686e-16
      4954.00  1.17541e-16
      4956.00  9.63166e-17
      4958.00  1.01280e-16
      4960.00  9.85213e-17
      4962.00  1.02253e-16
      4964.00  9.81531e-17
      4966.00  1.04036e-16
      4968.00  1.04345e-16
      4970.00  1.06692e-16
      4972.00  1.02491e-16
      4974.00  1.09219e-16
      4976.00  1.12227e-16
      4978.00  1.02169e-16
      4980.00  1.00844e-16
      4982.00  1.07323e-16
      4984.00  1.10002e-16
      4986.00  1.17083e-16
      4988.00  1.07969e-16
      4990.00  1.10833e-16
      4992.00  1.15328e-16
      4994.00  1.18328e-16
      4996.00  1.17908e-16
      4998.00  1.16866e-16
      5000.00  1.22071e-16
      5002.00  1.20893e-16
      5004.00  1.14114e-16
      5006.00  1.14932e-16
      5008.00  1.17234e-16
      5010.00  1.18938e-16
      5012.00  1.10789e-16
      5014.00  1.05987e-16
      5016.00  1.10815e-16
      5018.00  1.06849e-16
      5020.00  1.14768e-16
      5022.00  1.18790e-16
      5024.00  1.13881e-16
      5026.00  1.01266e-16
      5028.00  1.17525e-16
      5030.00  1.15867e-16
      5032.00  1.08505e-16
      5034.00  1.05600e-16
      5036.00  1.16200e-16
      5038.00  1.12494e-16
      5040.00  1.09384e-16
      5042.00  9.87908e-17
      5044.00  1.08317e-16
      5046.00  1.24664e-16
      5048.00  1.14707e-16
      5050.00  1.02688e-16
      5052.00  1.10402e-16
      5054.00  1.07098e-16
      5056.00  1.07152e-16
      5058.00  1.08983e-16
      5060.00  1.14814e-16
      5062.00  1.10680e-16
      5064.00  1.16071e-16
      5066.00  1.11121e-16
      5068.00  1.17021e-16
      5070.00  1.11059e-16
      5072.00  1.12121e-16
      5074.00  1.11970e-16
      5076.00  1.09105e-16
      5078.00  1.16514e-16
      5080.00  1.22604e-16
      5082.00  1.03964e-16
      5084.00  1.12605e-16
      5086.00  1.17920e-16
      5088.00  1.12378e-16
      5090.00  1.20005e-16
      5092.00  1.23025e-16
      5094.00  1.23443e-16
      5096.00  1.15590e-16
      5098.00  1.20202e-16
      5100.00  1.16800e-16
      5102.00  1.15532e-16
      5104.00  1.22975e-16
      5106.00  1.23316e-16
      5108.00  1.20666e-16
      5110.00  1.12050e-16
      5112.00  1.29586e-16
      5114.00  1.19538e-16
      5116.00  1.24200e-16
      5118.00  1.18467e-16
      5120.00  1.20643e-16
      5122.00  1.26419e-16
      5124.00  1.17507e-16
      5126.00  1.19671e-16
      5128.00  1.24646e-16
      5130.00  1.21514e-16
      5132.00  1.16928e-16
      5134.00  1.19664e-16
      5136.00  1.20687e-16
      5138.00  1.07974e-16
      5140.00  1.17061e-16
      5142.00  1.20213e-16
      5144.00  1.20205e-16
      5146.00  1.22516e-16
      5148.00  1.19623e-16
      5150.00  1.27747e-16
      5152.00  1.26429e-16
      5154.00  1.37412e-16
      5156.00  1.24736e-16
      5158.00  1.17991e-16
      5160.00  1.26238e-16
      5162.00  1.22574e-16
      5164.00  1.14774e-16
      5166.00  1.12549e-16
      5168.00  1.20531e-16
      5170.00  1.12984e-16
      5172.00  1.15111e-16
      5174.00  1.21575e-16
      5176.00  1.19897e-16
      5178.00  1.15934e-16
      5180.00  1.09001e-16
      5182.00  1.14700e-16
      5184.00  1.12028e-16
      5186.00  1.09635e-16
      5188.00  1.12321e-16
      5190.00  1.12393e-16
      5192.00  1.20463e-16
      5194.00  1.15440e-16
      5196.00  1.16562e-16
      5198.00  1.23167e-16
      5200.00  1.20011e-16
      5202.00  1.23838e-16
      5204.00  1.18711e-16
      5206.00  1.27543e-16
      5208.00  1.10237e-16
      5210.00  1.17367e-16
      5212.00  1.28143e-16
      5214.00  1.27927e-16
      5216.00  1.28849e-16
      5218.00  1.28924e-16
      5220.00  1.27993e-16
      5222.00  1.28584e-16
      5224.00  1.30731e-16
      5226.00  1.30218e-16
      5228.00  1.31398e-16
      5230.00  1.21796e-16
      5232.00  1.23820e-16
      5234.00  1.34635e-16
      5236.00  1.25147e-16
      5238.00  1.23715e-16
      5240.00  1.26128e-16
      5242.00  1.27599e-16
      5244.00  1.20288e-16
      5246.00  1.17100e-16
      5248.00  1.23424e-16
      5250.00  1.21585e-16
      5252.00  1.25388e-16
      5254.00  1.30040e-16
      5256.00  1.26766e-16
      5258.00  1.27346e-16
      5260.00  1.19294e-16
      5262.00  1.23836e-16
      5264.00  1.25516e-16
      5266.00  1.23886e-16
      5268.00  1.24262e-16
      5270.00  1.30308e-16
      5272.00  1.29930e-16
      5274.00  1.25503e-16
      5276.00  1.18328e-16
      5278.00  1.22677e-16
      5280.00  1.32026e-16
      5282.00  1.22900e-16
      5284.00  1.28735e-16
      5286.00  1.27881e-16
      5288.00  1.29297e-16
      5290.00  1.33729e-16
      5292.00  1.29469e-16
      5294.00  1.19451e-16
      5296.00  1.27056e-16
      5298.00  1.20976e-16
      5300.00  1.20625e-16
      5302.00  1.10774e-16
      5304.00  1.19882e-16
      5306.00  1.13994e-16
      5308.00  1.20175e-16
      5310.00  1.12720e-16
      5312.00  1.11265e-16
      5314.00  1.10806e-16
      5316.00  1.02513e-16
      5318.00  1.10044e-16
      5320.00  1.07147e-16
      5322.00  1.08805e-16
      5324.00  1.14092e-16
      5326.00  1.19064e-16
      5328.00  1.18645e-16
      5330.00  1.11216e-16
      5332.00  1.15302e-16
      5334.00  1.09623e-16
      5336.00  1.20435e-16
      5338.00  1.16087e-16
      5340.00  1.16616e-16
      5342.00  1.11303e-16
      5344.00  1.19718e-16
      5346.00  1.09744e-16
      5348.00  1.02725e-16
      5350.00  1.11138e-16
      5352.00  1.08890e-16
      5354.00  1.05576e-16
      5356.00  1.16262e-16
      5358.00  1.14959e-16
      5360.00  1.19114e-16
      5362.00  1.25285e-16
      5364.00  1.06102e-16
      5366.00  1.11978e-16
      5368.00  1.06519e-16
      5370.00  1.15606e-16
      5372.00  1.08852e-16
      5374.00  1.12292e-16
      5376.00  1.12680e-16
      5378.00  1.12164e-16
      5380.00  1.13340e-16
      5382.00  1.05543e-16
      5384.00  1.12861e-16
      5386.00  1.14445e-16
      5388.00  1.16279e-16
      5390.00  1.10974e-16
      5392.00  1.17623e-16
      5394.00  1.05805e-16
      5396.00  9.99937e-17
      5398.00  1.02923e-16
      5400.00  1.14972e-16
      5402.00  1.12856e-16
      5404.00  1.18777e-16
      5406.00  1.14539e-16
      5408.00  1.20296e-16
      5410.00  1.27424e-16
      5412.00  1.07580e-16
      5414.00  1.10186e-16
      5416.00  9.88183e-17
      5418.00  1.03005e-16
      5420.00  1.06919e-16
      5422.00  1.18183e-16
      5424.00  1.10017e-16
      5426.00  1.23117e-16
      5428.00  1.22371e-16
      5430.00  1.03745e-16
      5432.00  1.12438e-16
      5434.00  1.11610e-16
      5436.00  1.06653e-16
      5438.00  1.01180e-16
      5440.00  1.01570e-16
      5442.00  1.07195e-16
      5444.00  1.13872e-16
      5446.00  1.11017e-16
      5448.00  1.04374e-16
      5450.00  1.01818e-16
      5452.00  1.00705e-16
      5454.00  1.06533e-16
      5456.00  1.00758e-16
      5458.00  1.11905e-16
      5460.00  1.04561e-16
      5462.00  1.09433e-16
      5464.00  1.13108e-16
      5466.00  1.16860e-16
      5468.00  1.02645e-16
      5470.00  1.13402e-16
      5472.00  1.12548e-16
      5474.00  1.06211e-16
      5476.00  1.16453e-16
      5478.00  1.11660e-16
      5480.00  1.17438e-16
      5482.00  1.02808e-16
      5484.00  1.18116e-16
      5486.00  1.12480e-16
      5488.00  1.05075e-16
      5490.00  1.00336e-16
      5492.00  1.00769e-16
      5494.00  1.02972e-16
      5496.00  8.62290e-17
      5498.00  1.01451e-16
      5500.00  9.35064e-17
      5502.00  1.10788e-16
      5504.00  1.08424e-16
      5506.00  1.09218e-16
      5508.00  1.03444e-16
      5510.00  9.68880e-17
      5512.00  1.03621e-16
      5514.00  1.05945e-16
      5516.00  1.05063e-16
      5518.00  1.03803e-16
      5520.00  9.83800e-17
      5522.00  9.52383e-17
      5524.00  9.91639e-17
      5526.00  9.95535e-17
      5528.00  1.00086e-16
      5530.00  8.36907e-17
      5532.00  9.20059e-17
      5534.00  9.25152e-17
      5536.00  1.01807e-16
      5538.00  9.84328e-17
      5540.00  9.39449e-17
      5542.00  9.67670e-17
      5544.00  9.57004e-17
      5546.00  9.73613e-17
      5548.00  8.82328e-17
      5550.00  9.37760e-17
      5552.00  9.85784e-17
      5554.00  9.78240e-17
      5556.00  9.37547e-17
      5558.00  9.48178e-17
      5560.00  9.48556e-17
      5562.00  9.22774e-17
      5564.00  9.60764e-17
      5566.00  1.02240e-16
      5568.00  8.43852e-17
      5570.00  6.84483e-17
      5572.00  5.20234e-17
      5574.00  7.83449e-17
      5576.00  8.14846e-17
      5578.00  9.46443e-17
      5580.00  1.32400e-16
      5582.00  1.09529e-16
      5584.00  9.43354e-17
      5586.00  9.29807e-17
      5588.00  9.65252e-17
      5590.00  9.38579e-17
      5592.00  9.42695e-17
      5594.00  9.13396e-17
      5596.00  9.14588e-17
      5598.00  1.01202e-16
      5600.00  1.01293e-16
      5602.00  9.98785e-17
      5604.00  9.23792e-17
      5606.00  9.13906e-17
      5608.00  9.25187e-17
      5610.00  8.85299e-17
      5612.00  8.70137e-17
      5614.00  8.72522e-17
      5616.00  9.72626e-17
      5618.00  9.89910e-17
      5620.00  9.93460e-17
      5622.00  8.81759e-17
      5624.00  9.49574e-17
      5626.00  9.07783e-17
      5628.00  9.29664e-17
      5630.00  8.64995e-17
      5632.00  9.41505e-17
      5634.00  9.24080e-17
      5636.00  9.88749e-17
      5638.00  9.21094e-17
      5640.00  9.37057e-17
      5642.00  9.16353e-17
      5644.00  9.42085e-17
      5646.00  9.73127e-17
      5648.00  9.38275e-17
      5650.00  9.62326e-17
      5652.00  9.58128e-17
      5654.00  9.44908e-17
      5656.00  9.37734e-17
      5658.00  9.61386e-17
      5660.00  9.62636e-17
      5662.00  9.29334e-17
      5664.00  9.37835e-17
      5666.00  8.50879e-17
      5668.00  9.21436e-17
      5670.00  9.33906e-17
      5672.00  9.28355e-17
      5674.00  9.25696e-17
      5676.00  9.66014e-17
      5678.00  9.22957e-17
      5680.00  8.91276e-17
      5682.00  7.93443e-17
      5684.00  8.79339e-17
      5686.00  8.33871e-17
      5688.00  8.75314e-17
      5690.00  8.53490e-17
      5692.00  9.10318e-17
      5694.00  9.28814e-17
      5696.00  8.93702e-17
      5698.00  9.15302e-17
      5700.00  8.80735e-17
      5702.00  9.24113e-17
      5704.00  9.06855e-17
      5706.00  8.98454e-17
      5708.00  9.18452e-17
      5710.00  9.50822e-17
      5712.00  9.31047e-17
      5714.00  9.20263e-17
      5716.00  9.47225e-17
      5718.00  9.10594e-17
      5720.00  8.85570e-17
      5722.00  9.07558e-17
      5724.00  8.83921e-17
      5726.00  8.61335e-17
      5728.00  1.00115e-16
      5730.00  9.38769e-17
      5732.00  9.04663e-17
      5734.00  9.29883e-17
      5736.00  9.25118e-17
      5738.00  9.48033e-17
      5740.00  8.98662e-17
      5742.00  8.79592e-17
      5744.00  8.91686e-17
      5746.00  9.72621e-17
      5748.00  9.60009e-17
      5750.00  9.19592e-17
      5752.00  9.14783e-17
      5754.00  8.90198e-17
      5756.00  9.66268e-17
      5758.00  9.82706e-17
      5760.00  9.33864e-17
      5762.00  9.84526e-17
      5764.00  1.00033e-16
      5766.00  9.94158e-17
      5768.00  1.00031e-16
      5770.00  9.86978e-17
      5772.00  1.03998e-16
      5774.00  9.42920e-17
      5776.00  1.04261e-16
      5778.00  1.00473e-16
      5780.00  1.00975e-16
      5782.00  9.41030e-17
      5784.00  1.05614e-16
      5786.00  9.86345e-17
      5788.00  1.03093e-16
      5790.00  1.04275e-16
      5792.00  1.06614e-16
      5794.00  1.08049e-16
      5796.00  1.02232e-16
      5798.00  1.09617e-16
      5800.00  1.05256e-16
      5802.00  1.05748e-16
      5804.00  1.00447e-16
      5806.00  1.01187e-16
      5808.00  1.02842e-16
      5810.00  1.07188e-16
      5812.00  1.08964e-16
      5814.00  1.09455e-16
      5816.00  1.10727e-16
      5818.00  1.08048e-16
      5820.00  1.05949e-16
      5822.00  1.00044e-16
      5824.00  1.06796e-16
      5826.00  1.02941e-16
      5828.00  1.03731e-16
      5830.00  1.01053e-16
      5832.00  1.12098e-16
      5834.00  1.03790e-16
      5836.00  9.93033e-17
      5838.00  1.07032e-16
      5840.00  1.07976e-16
      5842.00  1.10279e-16
      5844.00  1.02798e-16
      5846.00  9.91577e-17
      5848.00  1.01748e-16
      5850.00  1.06183e-16
      5852.00  1.04878e-16
      5854.00  1.05625e-16
      5856.00  1.10421e-16
      5858.00  1.04413e-16
      5860.00  9.83257e-17
      5862.00  1.05304e-16
      5864.00  1.07973e-16
      5866.00  9.79802e-17
      5868.00  1.02846e-16
      5870.00  1.07778e-16
      5872.00  1.10967e-16
      5874.00  1.07395e-16
      5876.00  1.06941e-16
      5878.00  1.08651e-16
      5880.00  1.09950e-16
      5882.00  1.06111e-16
      5884.00  1.00631e-16
      5886.00  8.87366e-17
      5888.00  8.44119e-17
      5890.00  8.73364e-17
      5892.00  9.23658e-17
      5894.00  1.16279e-16
      5896.00  1.09729e-16
      5898.00  1.10557e-16
      5900.00  1.08392e-16
      5902.00  1.12467e-16
      5904.00  1.02244e-16
      5906.00  1.02348e-16
      5908.00  1.06587e-16
      5910.00  1.04128e-16
      5912.00  1.02175e-16
      5914.00  1.04841e-16
      5916.00  9.81489e-17
      5918.00  9.84286e-17
      5920.00  9.98613e-17
      5922.00  9.46909e-17
      5924.00  9.78999e-17
      5926.00  9.96151e-17
      5928.00  9.77461e-17
      5930.00  1.03945e-16
      5932.00  1.07027e-16
      5934.00  1.04540e-16
      5936.00  9.99288e-17
      5938.00  9.79976e-17
      5940.00  1.01088e-16
      5942.00  1.02591e-16
      5944.00  1.05687e-16
      5946.00  1.01141e-16
      5948.00  1.06823e-16
      5950.00  1.02395e-16
      5952.00  9.90441e-17
      5954.00  1.08547e-16
      5956.00  1.01974e-16
      5958.00  1.05024e-16
      5960.00  1.11978e-16
      5962.00  1.01014e-16
      5964.00  9.93701e-17
      5966.00  9.94063e-17
      5968.00  1.08271e-16
      5970.00  1.02068e-16
      5972.00  1.07326e-16
      5974.00  1.02554e-16
      5976.00  9.87148e-17
      5978.00  1.00644e-16
      5980.00  1.03041e-16
      5982.00  1.00928e-16
      5984.00  9.91902e-17
      5986.00  1.06356e-16
      5988.00  1.03622e-16
      5990.00  1.00559e-16
      5992.00  9.76084e-17
      5994.00  1.04183e-16
      5996.00  1.04377e-16
      5998.00  9.50432e-17
      6000.00  9.13192e-17
      6002.00  9.99219e-17
      6004.00  9.47422e-17
      6006.00  8.63340e-17
      6008.00  9.15091e-17
      6010.00  9.68597e-17
      6012.00  8.80175e-17
      6014.00  8.59556e-17
      6016.00  8.92684e-17
      6018.00  8.99705e-17
      6020.00  8.93053e-17
      6022.00  8.80086e-17
      6024.00  8.52354e-17
      6026.00  8.72645e-17
      6028.00  8.68661e-17
      6030.00  8.88023e-17
      6032.00  8.88608e-17
      6034.00  8.85539e-17
      6036.00  8.82748e-17
      6038.00  8.59782e-17
      6040.00  8.66040e-17
      6042.00  9.01330e-17
      6044.00  9.13612e-17
      6046.00  9.24972e-17
      6048.00  1.00002e-16
      6050.00  9.90589e-17
      6052.00  1.01253e-16
      6054.00  9.05129e-17
      6056.00  9.03194e-17
      6058.00  9.30789e-17
      6060.00  9.21751e-17
      6062.00  8.86703e-17
      6064.00  8.68057e-17
      6066.00  9.07404e-17
      6068.00  9.54466e-17
      6070.00  8.59676e-17
      6072.00  8.67510e-17
      6074.00  9.25049e-17
      6076.00  8.87375e-17
      6078.00  9.00268e-17
      6080.00  9.56689e-17
      6082.00  9.10524e-17
      6084.00  9.30768e-17
      6086.00  9.63940e-17
      6088.00  9.52711e-17
      6090.00  9.21527e-17
      6092.00  9.58992e-17
      6094.00  9.68330e-17
      6096.00  9.26636e-17
      6098.00  9.55052e-17
      6100.00  9.39630e-17
      6102.00  1.02148e-16
      6104.00  1.05850e-16
      6106.00  9.48775e-17
      6108.00  9.02577e-17
      6110.00  9.66558e-17
      6112.00  9.96439e-17
      6114.00  9.54947e-17
      6116.00  9.41827e-17
      6118.00  9.94388e-17
      6120.00  1.00584e-16
      6122.00  9.83768e-17
      6124.00  1.02119e-16
      6126.00  9.92948e-17
      6128.00  9.28664e-17
      6130.00  9.66429e-17
      6132.00  9.36686e-17
      6134.00  9.66871e-17
      6136.00  1.09096e-16
      6138.00  9.91008e-17
      6140.00  9.15701e-17
      6142.00  9.35143e-17
      6144.00  9.25547e-17
      6146.00  9.64457e-17
      6148.00  9.84199e-17
      6150.00  1.02832e-16
      6152.00  1.04112e-16
      6154.00  1.04779e-16
      6156.00  9.71174e-17
      6158.00  9.52453e-17
      6160.00  1.02345e-16
      6162.00  9.66923e-17
      6164.00  9.75086e-17
      6166.00  9.71598e-17
      6168.00  9.11199e-17
      6170.00  9.57025e-17
      6172.00  9.38547e-17
      6174.00  8.90763e-17
      6176.00  9.23993e-17
      6178.00  9.47247e-17
      6180.00  9.97980e-17
      6182.00  9.78305e-17
      6184.00  9.14612e-17
      6186.00  9.75709e-17
      6188.00  9.88559e-17
      6190.00  9.48050e-17
      6192.00  9.44689e-17
      6194.00  9.21046e-17
      6196.00  9.23187e-17
      6198.00  9.18735e-17
      6200.00  9.24373e-17
      6202.00  8.94275e-17
      6204.00  9.16737e-17
      6206.00  8.86132e-17
      6208.00  9.00768e-17
      6210.00  8.63477e-17
      6212.00  9.51430e-17
      6214.00  9.46488e-17
      6216.00  9.47469e-17
      6218.00  9.02819e-17
      6220.00  9.10818e-17
      6222.00  9.42324e-17
      6224.00  9.53339e-17
      6226.00  8.84593e-17
      6228.00  8.63181e-17
      6230.00  9.55000e-17
      6232.00  9.23710e-17
      6234.00  8.86898e-17
      6236.00  8.88792e-17
      6238.00  9.56852e-17
      6240.00  9.86763e-17
      6242.00  1.00457e-16
      6244.00  8.90215e-17
      6246.00  9.93361e-17
      6248.00  9.36131e-17
      6250.00  8.88282e-17
      6252.00  9.17828e-17
      6254.00  9.82429e-17
      6256.00  9.80159e-17
      6258.00  9.53671e-17
      6260.00  9.42106e-17
      6262.00  9.61784e-17
      6264.00  9.38956e-17
      6266.00  8.79347e-17
      6268.00  8.78143e-17
      6270.00  9.22310e-17
      6272.00  9.16936e-17
      6274.00  9.46177e-17
      6276.00  9.53566e-17
      6278.00  9.49581e-17
      6280.00  9.91900e-17
      6282.00  1.02916e-16
      6284.00  1.01408e-16
      6286.00  9.55049e-17
      6288.00  9.44961e-17
      6290.00  9.82980e-17
      6292.00  9.76914e-17
      6294.00  1.00053e-16
      6296.00  9.24258e-17
      6298.00  1.02342e-16
      6300.00  1.02776e-16
      6302.00  1.03888e-16
      6304.00  9.86439e-17
      6306.00  9.52011e-17
      6308.00  9.77825e-17
      6310.00  9.57008e-17
      6312.00  9.69483e-17
      6314.00  9.95269e-17
      6316.00  1.00232e-16
      6318.00  1.00805e-16
      6320.00  1.03568e-16
      6322.00  1.00148e-16
      6324.00  1.02362e-16
      6326.00  9.90923e-17
      6328.00  1.09482e-16
      6330.00  1.05504e-16
      6332.00  9.74891e-17
      6334.00  1.10608e-16
      6336.00  1.10396e-16
      6338.00  1.04293e-16
      6340.00  9.77607e-17
      6342.00  1.00577e-16
      6344.00  1.06700e-16
      6346.00  1.08714e-16
      6348.00  1.06183e-16
      6350.00  1.01805e-16
      6352.00  1.06193e-16
      6354.00  1.03559e-16
      6356.00  1.07650e-16
      6358.00  1.07674e-16
      6360.00  1.08378e-16
      6362.00  1.06404e-16
      6364.00  1.06550e-16
      6366.00  1.05012e-16
      6368.00  1.07919e-16
      6370.00  1.02791e-16
      6372.00  1.03148e-16
      6374.00  1.05959e-16
      6376.00  1.00029e-16
      6378.00  1.03309e-16
      6380.00  1.04813e-16
      6382.00  1.05969e-16
      6384.00  1.07055e-16
      6386.00  1.08366e-16
      6388.00  1.11418e-16
      6390.00  1.03804e-16
      6392.00  9.99190e-17
      6394.00  1.05796e-16
      6396.00  1.03997e-16
      6398.00  9.85630e-17
      6400.00  1.06734e-16
      6402.00  1.07139e-16
      6404.00  1.02847e-16
      6406.00  1.02975e-16
      6408.00  1.02238e-16
      6410.00  1.03624e-16
      6412.00  1.06525e-16
      6414.00  1.12324e-16
      6416.00  1.13923e-16
      6418.00  1.08663e-16
      6420.00  1.06712e-16
      6422.00  1.06593e-16
      6424.00  1.00041e-16
      6426.00  1.08654e-16
      6428.00  1.08176e-16
      6430.00  1.07637e-16
      6432.00  1.02751e-16
      6434.00  9.87378e-17
      6436.00  1.04081e-16
      6438.00  1.03417e-16
      6440.00  1.07234e-16
      6442.00  1.07292e-16
      6444.00  1.07577e-16
      6446.00  1.03711e-16
      6448.00  1.04315e-16
      6450.00  1.03697e-16
      6452.00  1.07624e-16
      6454.00  1.08165e-16
      6456.00  1.08938e-16
      6458.00  9.95323e-17
      6460.00  1.02798e-16
      6462.00  1.07999e-16
      6464.00  1.05058e-16
      6466.00  1.09234e-16
      6468.00  1.09305e-16
      6470.00  1.12183e-16
      6472.00  1.08245e-16
      6474.00  1.06852e-16
      6476.00  1.04700e-16
      6478.00  1.04994e-16
      6480.00  1.03504e-16
      6482.00  1.05330e-16
      6484.00  1.01207e-16
      6486.00  1.00311e-16
      6488.00  1.01141e-16
      6490.00  1.02213e-16
      6492.00  1.03666e-16
      6494.00  1.01539e-16
      6496.00  1.02945e-16
      6498.00  1.01176e-16
      6500.00  1.03652e-16
      6502.00  1.01959e-16
      6504.00  1.04578e-16
      6506.00  1.03360e-16
      6508.00  1.08002e-16
      6510.00  1.01825e-16
      6512.00  1.02341e-16
      6514.00  1.10386e-16
      6516.00  9.89402e-17
      6518.00  1.00345e-16
      6520.00  1.00711e-16
      6522.00  1.05888e-16
      6524.00  1.06707e-16
      6526.00  1.09040e-16
      6528.00  1.05206e-16
      6530.00  1.01630e-16
      6532.00  1.03715e-16
      6534.00  1.00802e-16
      6536.00  1.09214e-16
      6538.00  1.07041e-16
      6540.00  1.08719e-16
      6542.00  9.98101e-17
      6544.00  1.03300e-16
      6546.00  1.04787e-16
      6548.00  1.08029e-16
      6550.00  9.84855e-17
      6552.00  1.04334e-16
      6554.00  1.08480e-16
      6556.00  1.02730e-16
      6558.00  1.03764e-16
      6560.00  1.01797e-16
      6562.00  1.03953e-16
      6564.00  1.01347e-16
      6566.00  1.05507e-16
      6568.00  9.90794e-17
      6570.00  9.69256e-17
      6572.00  9.68774e-17
      6574.00  9.56645e-17
      6576.00  9.91000e-17
      6578.00  1.02611e-16
      6580.00  1.00050e-16
      6582.00  9.52120e-17
      6584.00  1.03057e-16
      6586.00  1.00606e-16
      6588.00  1.01232e-16
      6590.00  9.55431e-17
      6592.00  1.02742e-16
      6594.00  1.02821e-16
      6596.00  9.46830e-17
      6598.00  9.46845e-17
      6600.00  9.83473e-17
      6602.00  1.01479e-16
      6604.00  1.04476e-16
      6606.00  1.04795e-16
      6608.00  9.73715e-17
      6610.00  9.90718e-17
      6612.00  9.74229e-17
      6614.00  9.83580e-17
      6616.00  9.84038e-17
      6618.00  9.93248e-17
      6620.00  1.00099e-16
      6622.00  9.99293e-17
      6624.00  9.74452e-17
      6626.00  9.51843e-17
      6628.00  9.92519e-17
      6630.00  1.01730e-16
      6632.00  1.00688e-16
      6634.00  1.00605e-16
      6636.00  1.02914e-16
      6638.00  1.01642e-16
      6640.00  9.82332e-17
      6642.00  9.80399e-17
      6644.00  9.81869e-17
      6646.00  9.60179e-17
      6648.00  9.97158e-17
      6650.00  9.89587e-17
      6652.00  9.68030e-17
      6654.00  9.89853e-17
      6656.00  9.97961e-17
      6658.00  1.00207e-16
      6660.00  9.67964e-17
      6662.00  9.73185e-17
      6664.00  9.84741e-17
      6666.00  9.76846e-17
      6668.00  1.02280e-16
      6670.00  9.72804e-17
      6672.00  9.75463e-17
      6674.00  9.35393e-17
      6676.00  9.79783e-17
      6678.00  1.00101e-16
      6680.00  1.03014e-16
      6682.00  9.89819e-17
      6684.00  1.00056e-16
      6686.00  9.91719e-17
      6688.00  9.88933e-17
      6690.00  9.99153e-17
      6692.00  9.53756e-17
      6694.00  9.84379e-17
      6696.00  9.73225e-17
      6698.00  9.63193e-17
      6700.00  9.19455e-17
      6702.00  9.48839e-17
      6704.00  9.30161e-17
      6706.00  9.21130e-17
      6708.00  9.32925e-17
      6710.00  9.55231e-17
      6712.00  9.43131e-17
      6714.00  9.96430e-17
      6716.00  1.02510e-16
      6718.00  1.00824e-16
      6720.00  9.93438e-17
      6722.00  9.32958e-17
      6724.00  9.61766e-17
      6726.00  9.62167e-17
      6728.00  9.12367e-17
      6730.00  9.58444e-17
      6732.00  9.47312e-17
      6734.00  9.04280e-17
      6736.00  8.72616e-17
      6738.00  8.34946e-17
      6740.00  8.54825e-17
      6742.00  8.81291e-17
      6744.00  8.76546e-17
      6746.00  9.45843e-17
      6748.00  9.07582e-17
      6750.00  9.30734e-17
      6752.00  9.26410e-17
      6754.00  9.31306e-17
      6756.00  9.28915e-17
      6758.00  9.61318e-17
      6760.00  9.72188e-17
      6762.00  9.75761e-17
      6764.00  9.50173e-17
      6766.00  9.01289e-17
      6768.00  9.03997e-17
      6770.00  8.97691e-17
      6772.00  9.26929e-17
      6774.00  9.24740e-17
      6776.00  9.50564e-17
      6778.00  9.32954e-17
      6780.00  9.47444e-17
      6782.00  9.43236e-17
      6784.00  9.33062e-17
      6786.00  9.76373e-17
      6788.00  9.35979e-17
      6790.00  9.01735e-17
      6792.00  8.95236e-17
      6794.00  9.38276e-17
      6796.00  9.43552e-17
      6798.00  9.68249e-17
      6800.00  9.27000e-17
      6802.00  9.40331e-17
      6804.00  9.51203e-17
      6806.00  9.51689e-17
      6808.00  9.20211e-17
      6810.00  9.49953e-17
      6812.00  9.75543e-17
      6814.00  9.70399e-17
      6816.00  9.48931e-17
      6818.00  9.27785e-17
      6820.00  9.39707e-17
      6822.00  9.48410e-17
      6824.00  9.45162e-17
      6826.00  9.04056e-17
      6828.00  9.00921e-17
      6830.00  9.62844e-17
      6832.00  9.27295e-17
      6834.00  9.26679e-17
      6836.00  9.18148e-17
      6838.00  9.31286e-17
      6840.00  9.02110e-17
      6842.00  9.20689e-17
      6844.00  9.38611e-17
      6846.00  9.22591e-17
      6848.00  9.13108e-17
      6850.00  9.28439e-17
      6852.00  9.16925e-17
      6854.00  8.92121e-17
      6856.00  9.03450e-17
      6858.00  9.09274e-17
      6860.00  9.63309e-17
      6862.00  9.10196e-17
      6864.00  8.37797e-17
      6866.00  8.71911e-17
      6868.00  9.47460e-17
      6870.00  9.57051e-17
      6872.00  8.75204e-17
      6874.00  8.81575e-17
      6876.00  9.27452e-17
      6878.00  9.25764e-17
      6880.00  8.80285e-17
      6882.00  9.01970e-17
      6884.00  9.71066e-17
      6886.00  9.53886e-17
      6888.00  8.98008e-17
      6890.00  8.86299e-17
      6892.00  9.27120e-17
      6894.00  8.96342e-17
      6896.00  8.85300e-17
      6898.00  9.38736e-17
      6900.00  9.57257e-17
      6902.00  8.99851e-17
      6904.00  9.50338e-17
      6906.00  8.70150e-17
      6908.00  9.15150e-17
      6910.00  9.65621e-17
      6912.00  9.17126e-17
      6914.00  9.07043e-17
      6916.00  9.11779e-17
      6918.00  9.27200e-17
      6920.00  9.30078e-17
      6922.00  9.10073e-17
      6924.00  9.03146e-17
      6926.00  9.14844e-17
      6928.00  8.41110e-17
      6930.00  8.59450e-17
      6932.00  8.89498e-17
      6934.00  8.24633e-17
      6936.00  8.18446e-17
      6938.00  8.78551e-17
      6940.00  9.17790e-17
      6942.00  9.12100e-17
      6944.00  9.11889e-17
      6946.00  8.98995e-17
      6948.00  8.92207e-17
      6950.00  8.43280e-17
      6952.00  8.49526e-17
      6954.00  8.04517e-17
      6956.00  8.91567e-17
      6958.00  8.69182e-17
      6960.00  8.19849e-17
      6962.00  8.77211e-17
      6964.00  8.14977e-17
      6966.00  7.76357e-17
      6968.00  7.79903e-17
      6970.00  7.87363e-17
      6972.00  7.93473e-17
      6974.00  8.28618e-17
      6976.00  8.23969e-17
      6978.00  7.82697e-17
      6980.00  7.72014e-17
      6982.00  7.45993e-17
      6984.00  7.85862e-17
      6986.00  7.91355e-17
      6988.00  7.44695e-17
      6990.00  7.41037e-17
      6992.00  8.07756e-17
      6994.00  7.98192e-17
      6996.00  7.35482e-17
      6998.00  7.11731e-17
      7000.00  7.86755e-17
      7002.00  7.58946e-17
      7004.00  7.73566e-17
      7006.00  7.62985e-17
      7008.00  7.34101e-17
      7010.00  7.66925e-17
      7012.00  7.48943e-17
      7014.00  7.48295e-17
      7016.00  7.57862e-17
      7018.00  7.29044e-17
      7020.00  7.33735e-17
      7022.00  7.51577e-17
      7024.00  7.50971e-17
      7026.00  7.62856e-17
      7028.00  7.67820e-17
      7030.00  7.56054e-17
      7032.00  7.58499e-17
      7034.00  7.53553e-17
      7036.00  7.72701e-17
      7038.00  7.34617e-17
      7040.00  7.63532e-17
      7042.00  7.56571e-17
      7044.00  7.58198e-17
      7046.00  6.99501e-17
      7048.00  6.72586e-17
      7050.00  6.98460e-17
      7052.00  7.24695e-17
      7054.00  7.36635e-17
      7056.00  7.18530e-17
      7058.00  7.57149e-17
      7060.00  7.51543e-17
      7062.00  7.62200e-17
      7064.00  7.53641e-17
      7066.00  7.80367e-17
      7068.00  7.56573e-17
      7070.00  8.21525e-17
      7072.00  7.99823e-17
      7074.00  7.67697e-17
      7076.00  7.96638e-17
      7078.00  8.11520e-17
      7080.00  7.92908e-17
      7082.00  7.57081e-17
      7084.00  7.69301e-17
      7086.00  7.68731e-17
      7088.00  8.27260e-17
      7090.00  8.10433e-17
      7092.00  8.32614e-17
      7094.00  8.49562e-17
      7096.00  8.05238e-17
      7098.00  8.07718e-17
      7100.00  8.42680e-17
      7102.00  8.48822e-17
      7104.00  7.92584e-17
      7106.00  8.27307e-17
      7108.00  8.64132e-17
      7110.00  8.30976e-17
      7112.00  8.30440e-17
      7114.00  8.38552e-17
      7116.00  8.32892e-17
      7118.00  8.52089e-17
      7120.00  8.54869e-17
      7122.00  8.67420e-17
      7124.00  8.63226e-17
      7126.00  8.32348e-17
      7128.00  8.34748e-17
      7130.00  8.40640e-17
      7132.00  8.68511e-17
      7134.00  8.37073e-17
      7136.00  8.59560e-17
      7138.00  8.43776e-17
      7140.00  8.19487e-17
      7142.00  8.49828e-17
      7144.00  8.55746e-17
      7146.00  8.41314e-17
      7148.00  8.49087e-17
      7150.00  8.97710e-17
      7152.00  8.67394e-17
      7154.00  8.88496e-17
      7156.00  8.56437e-17
      7158.00  8.76361e-17
      7160.00  8.60801e-17
      7162.00  8.53483e-17
      7164.00  9.00400e-17
      7166.00  8.92299e-17
      7168.00  9.25966e-17
      7170.00  9.30153e-17
      7172.00  9.43064e-17
      7174.00  9.19932e-17
      7176.00  9.64505e-17
      7178.00  9.24681e-17
      7180.00  9.34603e-17
      7182.00  9.36251e-17
      7184.00  9.66291e-17
      7186.00  9.29404e-17
      7188.00  8.91257e-17
      7190.00  9.21299e-17
      7192.00  9.80753e-17
      7194.00  9.64942e-17
      7196.00  9.09873e-17
      7198.00  9.38331e-17
      7200.00  9.86821e-17
      7202.00  9.89737e-17
      7204.00  1.01242e-16
      7206.00  9.66272e-17
      7208.00  9.53201e-17
      7210.00  9.21352e-17
      7212.00  9.34830e-17
      7214.00  9.23773e-17
      7216.00  9.38742e-17
      7218.00  9.14183e-17
      7220.00  9.48205e-17
      7222.00  9.10921e-17
      7224.00  9.03988e-17
      7226.00  8.79781e-17
      7228.00  8.85335e-17
      7230.00  8.52207e-17
      7232.00  8.97965e-17
      7234.00  1.00002e-16
      7236.00  9.31731e-17
      7238.00  9.75690e-17
      7240.00  9.50602e-17
      7242.00  9.85457e-17
      7244.00  9.97309e-17
      7246.00  9.23175e-17
      7248.00  8.15584e-17
      7250.00  9.22458e-17
      7252.00  9.72316e-17
      7254.00  8.94643e-17
      7256.00  9.24657e-17
      7258.00  8.89760e-17
      7260.00  8.58146e-17
      7262.00  8.30016e-17
      7264.00  9.58973e-17
      7266.00  8.92165e-17
      7268.00  9.14494e-17
      7270.00  9.08481e-17
      7272.00  8.98242e-17
      7274.00  9.40420e-17
      7276.00  9.35039e-17
      7278.00  8.74346e-17
      7280.00  9.18068e-17
      7282.00  9.15478e-17
      7284.00  8.86002e-17
      7286.00  9.86539e-17
      7288.00  9.11281e-17
      7290.00  9.40120e-17
      7292.00  9.32919e-17
      7294.00  9.56137e-17
      7296.00  9.53133e-17
      7298.00  9.17097e-17
      7300.00  9.22312e-17
      7302.00  8.57162e-17
      7304.00  9.00598e-17
      7306.00  8.77132e-17
      7308.00  8.95636e-17
      7310.00  9.07777e-17
      7312.00  9.73677e-17
      7314.00  9.17914e-17
      7316.00  8.33609e-17
      7318.00  9.31782e-17
      7320.00  8.96109e-17
      7322.00  9.34933e-17
      7324.00  9.59819e-17
      7326.00  9.21430e-17
      7328.00  9.05334e-17
      7330.00  9.09756e-17
      7332.00  8.85330e-17
      7334.00  9.19020e-17
      7336.00  9.62834e-17
      7338.00  9.48302e-17
      7340.00  8.70422e-17
      7342.00  9.50686e-17
      7344.00  8.82316e-17
      7346.00  8.38012e-17
      7348.00  1.00373e-16
      7350.00  1.11727e-16
      7352.00  9.44216e-17
      7354.00  8.76882e-17
      7356.00  9.34646e-17
      7358.00  8.36606e-17
      7360.00  8.00251e-17
      7362.00  8.34248e-17
      7364.00  8.12923e-17
      7366.00  8.53740e-17
      7368.00  8.72620e-17
      7370.00  9.89328e-17
      7372.00  8.67559e-17
      7374.00  8.66415e-17
      7376.00  8.45981e-17
      7378.00  8.72141e-17
      7380.00  8.36751e-17
      7382.00  8.37032e-17
      7384.00  8.38574e-17
      7386.00  8.40774e-17
      7388.00  8.95935e-17
      7390.00  8.95625e-17
      7392.00  8.67934e-17
      7394.00  8.43796e-17
      7396.00  7.86563e-17
      7398.00  8.05465e-17
      7400.00  8.77686e-17
      7402.00  8.47122e-17
      7404.00  8.38132e-17
      7406.00  8.14698e-17
      7408.00  8.24583e-17
      7410.00  8.46813e-17
      7412.00  8.19918e-17
      7414.00  8.25059e-17
      7416.00  7.98706e-17
      7418.00  8.53027e-17
      7420.00  8.15289e-17
      7422.00  7.96098e-17
      7424.00  7.50912e-17
      7426.00  7.83503e-17
      7428.00  8.09705e-17
      7430.00  7.75470e-17
      7432.00  7.67590e-17
      7434.00  7.85712e-17
      7436.00  8.43260e-17
      7438.00  8.36476e-17
      7440.00  8.14329e-17
      7442.00  7.67791e-17
      7444.00  7.89093e-17
      7446.00  8.17022e-17
      7448.00  8.59633e-17
      7450.00  8.18872e-17
      7452.00  8.24033e-17
      7454.00  8.45900e-17
      7456.00  7.75691e-17
      7458.00  8.48664e-17
      7460.00  8.36868e-17
      7462.00  7.99838e-17
      7464.00  7.95294e-17
      7466.00  8.36168e-17
      7468.00  8.17248e-17
      7470.00  8.07927e-17
      7472.00  8.09182e-17
      7474.00  8.20274e-17
      7476.00  7.87651e-17
      7478.00  7.46781e-17
      7480.00  8.31683e-17
      7482.00  7.90036e-17
      7484.00  8.13419e-17
      7486.00  7.78273e-17
      7488.00  8.67832e-17
      7490.00  8.68015e-17
      7492.00  8.76017e-17
      7494.00  8.37731e-17
      7496.00  7.93270e-17
      7498.00  7.79085e-17
      7500.00  7.53559e-17
      7502.00  8.16208e-17
      7504.00  9.83310e-17
      7506.00  1.27744e-16
      7508.00  1.31829e-16
      7510.00  1.20457e-16
      7512.00  9.43301e-17
      7514.00  7.95710e-17
      7516.00  8.00928e-17
      7518.00  7.69691e-17
      7520.00  8.40545e-17
      7522.00  8.31492e-17
      7524.00  8.58913e-17
      7526.00  8.96443e-17
      7528.00  9.40747e-17
      7530.00  1.02162e-16
      7532.00  1.06299e-16
      7534.00  9.52735e-17
      7536.00  8.43626e-17
      7538.00  8.05725e-17
      7540.00  7.59463e-17
      7542.00  7.78494e-17
      7544.00  7.18443e-17
      7546.00  7.39047e-17
      7548.00  7.04079e-17
      7550.00  7.25665e-17
      7552.00  7.85770e-17
      7554.00  8.49373e-17
      7556.00  7.69503e-17
      7558.00  7.75743e-17
      7560.00  7.55596e-17
      7562.00  7.77871e-17
      7564.00  7.46733e-17
      7566.00  7.42666e-17
      7568.00  7.72433e-17
      7570.00  7.21063e-17
      7572.00  8.54574e-17
      7574.00  8.00248e-17
      7576.00  7.60814e-17
      7578.00  7.30946e-17
      7580.00  7.67472e-17
      7582.00  7.78999e-17
      7584.00  7.60262e-17
      7586.00  7.83355e-17
      7588.00  7.22797e-17
      7590.00  7.50827e-17
      7592.00  6.78798e-17
      7594.00  7.07975e-17
      7596.00  6.63797e-17
      7598.00  8.24194e-17
      7600.00  6.94595e-17
      7602.00  6.15115e-17
      7604.00  8.19793e-17
      7606.00  8.22492e-17
      7608.00  8.54515e-17
      7610.00  8.40525e-17
      7612.00  8.09501e-17
      7614.00  7.47759e-17
      7616.00  8.14229e-17
      7618.00  7.15695e-17
      7620.00  7.40321e-17
      7622.00  7.32430e-17
      7624.00  7.57918e-17
      7626.00  7.83116e-17
      7628.00  7.44341e-17
      7630.00  8.26795e-17
      7632.00  6.62871e-17
      7634.00  7.51365e-17
      7636.00  7.31830e-17
      7638.00  8.37226e-17
      7640.00  7.40584e-17
      7642.00  7.45249e-17
      7644.00  7.52677e-17
      7646.00  7.33057e-17
      7648.00  8.16708e-17
      7650.00  7.33970e-17
      7652.00  7.54610e-17
      7654.00  7.85275e-17
      7656.00  7.45177e-17
      7658.00  7.52309e-17
      7660.00  7.95010e-17
      7662.00  7.71259e-17
      7664.00  7.55238e-17
      7666.00  7.57434e-17
      7668.00  7.19267e-17
      7670.00  7.39021e-17
      7672.00  7.05560e-17
      7674.00  7.32663e-17
      7676.00  7.67106e-17
      7678.00  7.82342e-17
      7680.00  8.17741e-17
      7682.00  9.14083e-17
      7684.00  8.27359e-17
      7686.00  7.72543e-17
      7688.00  7.32971e-17
      7690.00  7.45838e-17
      7692.00  7.64472e-17
      7694.00  7.59457e-17
      7696.00  8.25697e-17
      7698.00  8.25458e-17
      7700.00  8.60108e-17
      7702.00  8.10438e-17
      7704.00  7.68063e-17
      7706.00  7.68583e-17
      7708.00  8.13474e-17
      7710.00  6.44163e-17
      7712.00  6.69585e-17
      7714.00  6.29416e-17
      7716.00  5.89396e-17
      7718.00  6.72356e-17
      7720.00  7.18527e-17
      7722.00  7.83975e-17
      7724.00  6.92915e-17
      7726.00  7.40096e-17
      7728.00  6.80010e-17
      7730.00  7.07746e-17
      7732.00  7.39531e-17
      7734.00  7.64518e-17
      7736.00  7.96314e-17
      7738.00  7.25845e-17
      7740.00  7.48514e-17
      7742.00  7.30929e-17
      7744.00  7.54490e-17
      7746.00  8.29244e-17
      7748.00  7.50125e-17
      7750.00  6.51102e-17
      7752.00  7.67475e-17
      7754.00  7.86860e-17
      7756.00  7.72813e-17
      7758.00  7.61203e-17
      7760.00  7.37148e-17
      7762.00  6.95977e-17
      7764.00  7.07845e-17
      7766.00  7.28757e-17
      7768.00  7.54062e-17
      7770.00  7.43540e-17
      7772.00  7.36370e-17
      7774.00  7.22882e-17
      7776.00  7.65664e-17
      7778.00  7.71926e-17
      7780.00  7.57924e-17
      7782.00  6.94918e-17
      7784.00  6.86214e-17
      7786.00  7.21233e-17
      7788.00  8.34304e-17
      7790.00  8.45415e-17
      7792.00  8.12952e-17
      7794.00  7.73850e-17
      7796.00  7.19037e-17
      7798.00  7.22311e-17
      7800.00  7.33297e-17
      7802.00  7.58401e-17
      7804.00  7.58748e-17
      7806.00  6.82175e-17
      7808.00  6.65091e-17
      7810.00  7.45037e-17
      7812.00  7.51923e-17
      7814.00  7.28826e-17
      7816.00  7.67072e-17
      7818.00  7.48609e-17
      7820.00  8.42076e-17
      7822.00  8.30702e-17
      7824.00  7.25726e-17
      7826.00  7.00060e-17
      7828.00  6.92323e-17
      7830.00  6.87012e-17
      7832.00  7.30278e-17
      7834.00  6.95404e-17
      7836.00  7.50585e-17
      7838.00  7.24889e-17
      7840.00  7.10918e-17
      7842.00  7.27955e-17
      7844.00  7.50946e-17
      7846.00  6.96957e-17
      7848.00  7.73457e-17
      7850.00  7.82111e-17
      7852.00  6.85345e-17
      7854.00  6.65471e-17
      7856.00  7.59892e-17
      7858.00  7.52457e-17
      7860.00  7.17639e-17
      7862.00  7.28912e-17
      7864.00  7.61810e-17
      7866.00  6.98638e-17
      7868.00  7.19915e-17
      7870.00  7.47612e-17
      7872.00  7.47789e-17
      7874.00  7.03811e-17
      7876.00  7.14477e-17
      7878.00  7.52537e-17
      7880.00  7.39633e-17
      7882.00  6.75282e-17
      7884.00  6.85953e-17
      7886.00  7.11014e-17
      7888.00  6.50653e-17
      7890.00  7.52696e-17
      7892.00  6.84036e-17
      7894.00  6.88991e-17
      7896.00  7.32553e-17
      7898.00  7.55866e-17
      7900.00  7.30757e-17
      7902.00  7.02809e-17
      7904.00  6.83722e-17
      7906.00  7.46641e-17
      7908.00  8.01741e-17
      7910.00  7.92054e-17
      7912.00  6.90724e-17
      7914.00  6.41154e-17
      7916.00  8.35327e-17
      7918.00  8.70372e-17
      7920.00  7.77245e-17
      7922.00  7.58100e-17
      7924.00  7.89616e-17
      7926.00  7.74109e-17
      7928.00  7.30137e-17
      7930.00  7.09360e-17
      7932.00  6.85885e-17
      7934.00  6.62511e-17
      7936.00  6.58725e-17
      7938.00  7.70284e-17
      7940.00  7.82295e-17
      7942.00  7.31935e-17
      7944.00  6.97093e-17
      7946.00  7.29412e-17
      7948.00  6.96363e-17
      7950.00  6.47755e-17
      7952.00  6.67359e-17
      7954.00  6.76712e-17
      7956.00  7.27443e-17
      7958.00  6.54681e-17
      7960.00  7.54566e-17
      7962.00  7.62931e-17
      7964.00  7.52156e-17
      7966.00  7.33342e-17
      7968.00  7.30586e-17
      7970.00  7.51901e-17
      7972.00  7.32353e-17
      7974.00  7.76264e-17
      7976.00  7.61133e-17
      7978.00  7.52806e-17
      7980.00  6.80745e-17
      7982.00  6.50491e-17
      7984.00  6.44540e-17
      7986.00  6.94610e-17
      7988.00  7.56185e-17
      7990.00  8.38122e-17
      7992.00  7.40479e-17
      7994.00  6.31576e-17
      7996.00  6.81991e-17
      7998.00  6.86732e-17
      8000.00  7.60154e-17
      8002.00  6.95369e-17
      8004.00  7.34301e-17
      8006.00  6.18792e-17
      8008.00  7.31806e-17
      8010.00  7.53326e-17
      8012.00  6.83935e-17
      8014.00  6.45984e-17
      8016.00  6.64280e-17
      8018.00  6.54600e-17
      8020.00  7.16829e-17
      8022.00  7.41163e-17
      8024.00  6.95142e-17
      8026.00  7.50187e-17
      8028.00  5.99178e-17
      8030.00  6.30961e-17
      8032.00  6.92930e-17
      8034.00  6.75769e-17
      8036.00  6.68213e-17
      8038.00  6.49543e-17
      8040.00  7.11008e-17
      8042.00  6.58109e-17
      8044.00  7.22732e-17
      8046.00  6.63526e-17
      8048.00  7.02664e-17
      8050.00  6.74016e-17
      8052.00  7.05448e-17
      8054.00  6.69108e-17
      8056.00  7.30128e-17
      8058.00  6.97786e-17
      8060.00  7.22948e-17
      8062.00  7.26435e-17
      8064.00  6.27482e-17
      8066.00  6.15417e-17
      8068.00  6.89228e-17
      8070.00  7.03152e-17
      8072.00  6.13770e-17
      8074.00  6.57121e-17
      8076.00  7.15697e-17
      8078.00  6.57755e-17
      8080.00  6.46335e-17
      8082.00  6.50818e-17
      8084.00  6.62353e-17
      8086.00  6.22848e-17
      8088.00  7.01390e-17
      8090.00  6.84677e-17
      8092.00  6.70657e-17
      8094.00  6.64047e-17
      8096.00  6.46370e-17
      8098.00  6.81911e-17
      8100.00  6.42902e-17
      8102.00  6.17118e-17
      8104.00  6.74311e-17
      8106.00  7.12780e-17
      8108.00  6.38139e-17
      8110.00  6.30865e-17
      8112.00  6.35554e-17
      8114.00  6.58608e-17
      8116.00  6.37170e-17
      8118.00  6.67604e-17
      8120.00  6.49988e-17
      8122.00  6.79465e-17
      8124.00  6.79272e-17
      8126.00  6.15394e-17
      8128.00  6.34891e-17
      8130.00  6.05087e-17
      8132.00  6.72393e-17
      8134.00  6.42945e-17
      8136.00  6.41634e-17
      8138.00  6.49593e-17
      8140.00  6.81096e-17
      8142.00  7.13244e-17
      8144.00  6.88743e-17
      8146.00  6.66513e-17
      8148.00  6.42619e-17
      8150.00  6.34754e-17
      8152.00  6.19560e-17
      8154.00  6.07048e-17
      8156.00  6.05127e-17
      8158.00  6.24780e-17
      8160.00  5.76164e-17
      8162.00  6.92563e-17
      8164.00  6.62491e-17
      8166.00  6.39499e-17
      8168.00  6.69514e-17
      8170.00  6.34242e-17
      8172.00  6.71880e-17
      8174.00  6.09329e-17
      8176.00  6.71555e-17
      8178.00  6.27726e-17
      8180.00  6.40379e-17
      8182.00  6.47358e-17
      8184.00  7.36586e-17
      8186.00  6.86074e-17
      8188.00  6.90436e-17
      8190.00  6.43706e-17
      8192.00  6.02017e-17
      8194.00  7.41912e-17
      8196.00  5.83569e-17
      8198.00  6.29650e-17
      8200.00  7.54347e-17
      8202.00  7.02785e-17
      8204.00  6.82984e-17
      8206.00  6.72365e-17
      8208.00  6.54726e-17
      8210.00  6.08208e-17
      8212.00  6.42146e-17
      8214.00  6.03936e-17
      8216.00  6.50443e-17
      8218.00  6.47375e-17
      8220.00  6.29712e-17
      8222.00  6.04678e-17
      8224.00  5.89803e-17
      8226.00  5.90712e-17
      8228.00  6.61595e-17
      8230.00  6.77289e-17
      8232.00  7.12527e-17
      8234.00  7.12934e-17
      8236.00  6.46763e-17
      8238.00  6.80474e-17
      8240.00  6.40637e-17
      8242.00  6.82537e-17
      8244.00  6.46551e-17
      8246.00  6.67180e-17
      8248.00  6.58424e-17
      8250.00  5.94698e-17
      8252.00  6.25436e-17
      8254.00  6.33616e-17
      8256.00  7.05746e-17
      8258.00  5.71517e-17
      8260.00  6.82796e-17
      8262.00  6.67065e-17
      8264.00  6.54680e-17
      8266.00  6.36619e-17
      8268.00  6.47852e-17
      8270.00  6.56907e-17
      8272.00  6.49261e-17
      8274.00  6.88503e-17
      8276.00  6.76197e-17
      8278.00  8.13786e-17
      8280.00  6.32826e-17
      8282.00  6.30541e-17
      8284.00  7.18655e-17
      8286.00  7.08430e-17
      8288.00  5.99876e-17
      8290.00  5.93851e-17
      8292.00  6.90392e-17
      8294.00  7.13313e-17
      8296.00  7.67557e-17
      8298.00  6.37144e-17
      8300.00  6.00234e-17
      8302.00  6.53942e-17
      8304.00  6.73844e-17
      8306.00  6.68180e-17
      8308.00  5.88287e-17
      8310.00  6.58871e-17
      8312.00  6.48237e-17
      8314.00  6.87026e-17
      8316.00  6.65989e-17
      8318.00  6.98762e-17
      8320.00  6.22904e-17
      8322.00  6.61033e-17
      8324.00  6.09633e-17
      8326.00  6.11317e-17
      8328.00  6.26141e-17
      8330.00  6.41877e-17
      8332.00  6.52963e-17
      8334.00  6.56648e-17
      8336.00  6.45837e-17
      8338.00  6.70509e-17
      8340.00  8.44644e-17
      8342.00  6.66950e-17
      8344.00  6.02106e-17
      8346.00  5.77615e-17
      8348.00  6.26988e-17
      8350.00  7.11977e-17
      8352.00  6.24422e-17
      8354.00  6.30237e-17
      8356.00  5.54053e-17
      8358.00  6.30499e-17
      8360.00  6.56378e-17
      8362.00  6.49878e-17
      8364.00  5.93607e-17
      8366.00  6.46269e-17
      8368.00  6.20879e-17
      8370.00  6.23007e-17
      8372.00  6.77281e-17
      8374.00  6.70777e-17
      8376.00  6.62094e-17
      8378.00  7.46481e-17
      8380.00  7.43111e-17
      8382.00  5.84269e-17
      8384.00  5.93047e-17
      8386.00  6.11167e-17
      8388.00  6.63906e-17
      8390.00  6.45259e-17
      8392.00  6.89031e-17
      8394.00  7.50865e-17
      8396.00  7.19667e-17
      8398.00  5.48699e-17
      8400.00  5.71698e-17
      8402.00  5.79233e-17
      8404.00  6.29782e-17
      8406.00  6.54187e-17
      8408.00  7.14515e-17
      8410.00  7.39563e-17
      8412.00  6.63894e-17
      8414.00  5.76877e-17
      8416.00  6.64572e-17
      8418.00  6.72151e-17
      8420.00  6.77509e-17
      8422.00  7.08549e-17
      8424.00  7.42074e-17
      8426.00  6.96145e-17
      8428.00  6.63378e-17
      8430.00  5.91699e-17
      8432.00  6.47833e-17
      8434.00  6.37310e-17
      8436.00  7.19923e-17
      8438.00  6.88839e-17
      8440.00  6.15275e-17
      8442.00  6.25799e-17
      8444.00  6.20578e-17
      8446.00  6.67726e-17
      8448.00  6.74030e-17
      8450.00  6.82295e-17
      8452.00  6.13102e-17
      8454.00  6.01476e-17
      8456.00  6.90233e-17
      8458.00  6.56813e-17
      8460.00  6.65714e-17
      8462.00  6.27436e-17
      8464.00  6.01134e-17
      8466.00  6.65371e-17
      8468.00  1.04290e-16
      8470.00  9.04171e-17
      8472.00  8.71834e-17
      8474.00  7.18028e-17
      8476.00  6.39808e-17
      8478.00  6.35181e-17
      8480.00  6.24547e-17
      8482.00  6.15869e-17
      8484.00  6.10361e-17
      8486.00  6.49646e-17
      8488.00  6.70020e-17
      8490.00  6.81988e-17
      8492.00  6.12179e-17
      8494.00  6.48996e-17
      8496.00  6.42555e-17
      8498.00  6.77334e-17
      8500.00  7.53465e-17
      8502.00  6.76763e-17
      8504.00  6.23127e-17
      8506.00  6.06458e-17
      8508.00  6.16429e-17
      8510.00  6.59328e-17
      8512.00  6.95295e-17
      8514.00  6.50153e-17
      8516.00  6.59628e-17
      8518.00  6.35857e-17
      8520.00  6.78378e-17
      8522.00  6.86576e-17
      8524.00  6.32472e-17
      8526.00  6.27351e-17
      8528.00  6.12225e-17
      8530.00  6.23809e-17
      8532.00  6.43573e-17
      8534.00  6.38552e-17
      8536.00  6.41053e-17
      8538.00  6.23634e-17
      8540.00  6.50428e-17
      8542.00  6.10110e-17
      8544.00  6.54832e-17
      8546.00  6.27956e-17
      8548.00  5.85904e-17
      8550.00  5.42354e-17
      8552.00  6.02900e-17
      8554.00  5.75030e-17
      8556.00  5.94617e-17
      8558.00  5.99705e-17
      8560.00  6.56454e-17
      8562.00  6.29232e-17
      8564.00  6.41577e-17
      8566.00  6.53015e-17
      8568.00  6.12111e-17
      8570.00  6.33342e-17
      8572.00  5.95454e-17
      8574.00  6.83796e-17
      8576.00  6.46276e-17
      8578.00  6.47691e-17
      8580.00  6.29038e-17
      8582.00  6.18382e-17
      8584.00  6.26905e-17
      8586.00  6.08728e-17
      8588.00  6.60567e-17
      8590.00  6.12365e-17
      8592.00  6.11899e-17
      8594.00  6.45471e-17
      8596.00  6.63914e-17
      8598.00  6.26573e-17
      8600.00  6.43182e-17
      8602.00  6.26165e-17
      8604.00  6.33058e-17
      8606.00  6.34566e-17
      8608.00  6.60528e-17
      8610.00  7.11405e-17
      8612.00  7.01913e-17
      8614.00  7.37084e-17
      8616.00  6.65962e-17
      8618.00  7.41255e-17
      8620.00  7.07668e-17
      8622.00  7.01369e-17
      8624.00  8.02877e-17
      8626.00  8.45685e-17
      8628.00  7.74776e-17
      8630.00  7.23864e-17
      8632.00  7.24669e-17
      8634.00  7.06727e-17
      8636.00  7.20526e-17
      8638.00  6.33457e-17
      8640.00  6.14822e-17
      8642.00  6.39601e-17
      8644.00  6.97331e-17
      8646.00  7.00240e-17
      8648.00  5.97498e-17
      8650.00  6.22044e-17
      8652.00  6.36053e-17
      8654.00  6.79465e-17
      8656.00  7.13360e-17
      8658.00  6.89654e-17
      8660.00  6.53543e-17
      8662.00  7.62797e-17
      8664.00  6.95766e-17
      8666.00  7.87754e-17
      8668.00  8.01901e-17
      8670.00  7.39538e-17
      8672.00  7.17933e-17
      8674.00  6.78424e-17
      8676.00  6.26379e-17
      8678.00  5.66014e-17
      8680.00  6.01440e-17
      8682.00  6.45500e-17
      8684.00  6.71593e-17
      8686.00  6.99508e-17
      8688.00  6.29169e-17
      8690.00  6.46147e-17
      8692.00  6.32087e-17
      8694.00  6.38742e-17
      8696.00  7.01000e-17
      8698.00  7.03829e-17
      8700.00  6.56036e-17
      8702.00  6.32678e-17
      8704.00  6.32724e-17
      8706.00  6.79887e-17
      8708.00  6.76988e-17
      8710.00  6.11872e-17
      8712.00  6.50368e-17
      8714.00  6.11847e-17
      8716.00  6.37617e-17
      8718.00  6.32730e-17
      8720.00  6.68541e-17
      8722.00  6.33811e-17
      8724.00  6.05271e-17
      8726.00  6.11507e-17
      8728.00  6.43484e-17
      8730.00  6.47650e-17
      8732.00  6.15271e-17
      8734.00  6.25302e-17
      8736.00  5.98371e-17
      8738.00  5.98507e-17
      8740.00  6.49645e-17
      8742.00  6.83621e-17
      8744.00  6.67416e-17
      8746.00  6.69737e-17
      8748.00  6.86523e-17
      8750.00  6.56810e-17
      8752.00  6.48885e-17
      8754.00  6.89527e-17
      8756.00  8.16906e-17
      8758.00  7.20450e-17
      8760.00  6.02508e-17
      8762.00  5.68080e-17
      8764.00  5.95055e-17
      8766.00  5.26705e-17
      8768.00  5.39809e-17
      8770.00  7.01331e-17
      8772.00  8.12815e-17
      8774.00  7.57603e-17
      8776.00  6.16285e-17
      8778.00  5.51501e-17
      8780.00  6.03743e-17
      8782.00  5.81298e-17
      8784.00  6.89935e-17
      8786.00  6.81287e-17
      8788.00  6.31741e-17
      8790.00  6.34979e-17
      8792.00  5.98170e-17
      8794.00  5.63461e-17
      8796.00  6.13823e-17
      8798.00  6.22836e-17
      8800.00  6.36419e-17
      8802.00  6.09680e-17
      8804.00  6.73037e-17
      8806.00  6.36002e-17
      8808.00  6.28434e-17
      8810.00  6.05715e-17
      8812.00  5.63208e-17
      8814.00  6.45750e-17
      8816.00  6.08632e-17
      8818.00  6.18037e-17
      8820.00  6.94063e-17
      8822.00  6.12459e-17
      8824.00  4.61142e-17
      8826.00  2.95266e-17
      8828.00  4.09080e-17
      8830.00  6.17697e-17
      8832.00  5.31555e-17
      8834.00  5.77682e-17
      8836.00  6.44418e-17
      8838.00  5.47850e-17
      8840.00  5.19406e-17
      8842.00  6.08864e-17
      8844.00  7.04241e-17
      8846.00  7.11731e-17
      8848.00  7.70706e-17
      8850.00  6.96917e-17
      8852.00  5.45330e-17
      8854.00  5.91264e-17
      8856.00  6.39053e-17
      8858.00  6.12084e-17
      8860.00  6.25631e-17
      8862.00  6.49091e-17
      8864.00  6.51425e-17
      8866.00  6.53369e-17
      8868.00  6.88026e-17
      8870.00  6.63583e-17
      8872.00  6.16701e-17
      8874.00  6.74760e-17
      8876.00  6.97972e-17
      8878.00  7.27041e-17
      8880.00  8.48692e-17
      8882.00  8.09616e-17
      8884.00  6.80167e-17
      8886.00  4.70304e-17
      8888.00  4.05889e-17
      8890.00  7.04254e-17
      8892.00  6.69406e-17
      8894.00  6.42483e-17
      8896.00  7.12228e-17
      8898.00  7.26744e-17
      8900.00  7.77472e-17
      8902.00  7.85507e-17
      8904.00  6.74076e-17
      8906.00  6.19885e-17
      8908.00  5.98557e-17
      8910.00  6.06333e-17
      8912.00  7.01604e-17
      8914.00  8.59731e-17
      8916.00  7.02793e-17
      8918.00  5.79478e-17
      8920.00  5.77614e-17
      8922.00  4.68595e-17
      8924.00  6.39583e-17
      8926.00  6.12011e-17
      8928.00  8.40646e-17
      8930.00  7.32178e-17
      8932.00  6.39274e-17
      8934.00  6.49692e-17
      8936.00  7.32270e-17
      8938.00  7.91916e-17
      8940.00  7.45458e-17
      8942.00  6.77403e-17
      8944.00  5.48233e-17
      8946.00  6.41350e-17
      8948.00  6.81292e-17
      8950.00  7.24900e-17
      8952.00  7.65204e-17
      8954.00  6.80533e-17
      8956.00  5.88915e-17
      8958.00  5.43422e-17
      8960.00  4.40305e-17
      8962.00  6.74810e-17
      8964.00  6.75313e-17
      8966.00  6.87539e-17
      8968.00  8.02235e-17
      8970.00  7.38965e-17
      8972.00  7.05608e-17
      8974.00  6.61070e-17
      8976.00  6.56151e-17
      8978.00  6.54483e-17
      8980.00  6.76001e-17
      8982.00  6.66529e-17
      8984.00  6.06564e-17
      8986.00  6.59834e-17
      8988.00  8.09996e-17
      8990.00  6.50926e-17
      8992.00  6.24288e-17
      8994.00  7.05538e-17
      8996.00  8.17827e-17
      8998.00  7.19715e-17
      9000.00  5.65894e-17
      9002.00  5.22280e-17
      9004.00  6.27093e-17
      9006.00  8.23169e-17
      9008.00  7.82254e-17
      9010.00  7.34891e-17
      9012.00  6.97771e-17
      9014.00  6.32715e-17
      9016.00  6.52924e-17
      9018.00  6.34612e-17
      9020.00  6.41379e-17
      9022.00  6.93565e-17
      9024.00  7.00566e-17
      9026.00  6.91250e-17
      9028.00  6.56535e-17
      9030.00  7.06734e-17
      9032.00  7.09320e-17
      9034.00  7.29263e-17
      9036.00  6.28584e-17
      9038.00  5.87420e-17
      9040.00  6.12390e-17
      9042.00  6.75337e-17
      9044.00  6.50718e-17
      9046.00  6.58179e-17
      9048.00  6.67111e-17
      9050.00  5.92237e-17
      9052.00  6.89583e-17
      9054.00  6.29037e-17
      9056.00  6.75410e-17
      9058.00  6.88825e-17
      9060.00  6.64325e-17
      9062.00  6.89483e-17
      9064.00  6.93083e-17
      9066.00  6.71886e-17
      9068.00  6.68493e-17
      9070.00  6.61691e-17
      9072.00  6.68131e-17
      9074.00  6.63274e-17
      9076.00  6.04684e-17
      9078.00  7.13555e-17
      9080.00  6.92623e-17
      9082.00  6.55758e-17
      9084.00  6.33646e-17
      9086.00  6.17514e-17
      9088.00  7.02306e-17
      9090.00  6.53756e-17
      9092.00  7.37757e-17
      9094.00  6.86843e-17
      9096.00  7.67917e-17
      9098.00  7.73553e-17
      9100.00  6.70037e-17
      9102.00  6.43193e-17
      9104.00  7.09306e-17
      9106.00  6.39445e-17
      9108.00  6.48193e-17
      9110.00  7.16576e-17
      9112.00  7.02332e-17
      9114.00  6.40202e-17
      9116.00  6.64505e-17
      9118.00  7.55433e-17
      9120.00  6.74238e-17
      9122.00  6.64059e-17
      9124.00  6.34830e-17
      9126.00  5.98220e-17
      9128.00  6.33128e-17
      9130.00  6.43518e-17
      9132.00  6.65695e-17
      9134.00  6.70246e-17
      9136.00  7.76127e-17
      9138.00  7.45834e-17
      9140.00  6.72976e-17
      9142.00  6.52326e-17
      9144.00  7.27862e-17
      9146.00  6.31017e-17
      9148.00  6.43196e-17
      9150.00  6.69876e-17
      9152.00  6.54181e-17
      9154.00  8.23064e-17
      9156.00  6.62155e-17
      9158.00  6.89242e-17
      9160.00  6.82678e-17
      9162.00  7.16145e-17
      9164.00  6.17529e-17
      9166.00  6.80121e-17
      9168.00  6.94230e-17
      9170.00  6.77157e-17
      9172.00  6.43756e-17
      9174.00  6.39467e-17
      9176.00  7.22344e-17
      9178.00  6.94365e-17
      9180.00  7.63994e-17
      9182.00  7.20794e-17
      9184.00  6.34876e-17
      9186.00  6.25274e-17
      9188.00  6.82900e-17
      9190.00  6.73033e-17
      9192.00  6.24565e-17
      9194.00  6.93524e-17
      9196.00  6.59654e-17
      9198.00  6.85431e-17
      9200.00  6.02426e-17
      9202.00  6.29099e-17
      9204.00  6.69745e-17
      9206.00  6.76012e-17
      9208.00  6.44198e-17
      9210.00  7.11071e-17
      9212.00  7.03464e-17
      9214.00  7.06937e-17
      9216.00  7.23059e-17
      9218.00  6.83592e-17
      9220.00  6.14995e-17
      9222.00  6.64353e-17
      9224.00  6.77911e-17
      9226.00  6.61667e-17
      9228.00  6.20422e-17
      9230.00  7.23778e-17
      9232.00  7.08174e-17
      9234.00  7.10338e-17
      9236.00  6.03959e-17
      9238.00  6.58702e-17
      9240.00  7.13239e-17
      9242.00  7.00555e-17
      9244.00  6.76863e-17
      9246.00  6.33160e-17
      9248.00  6.61106e-17
      9250.00  7.32828e-17
      9252.00  6.95007e-17
      9254.00  6.80153e-17
      9256.00  7.12656e-17
      9258.00  6.58996e-17
      9260.00  7.28631e-17
      9262.00  7.35632e-17
      9264.00  7.24373e-17
      9266.00  5.86097e-17
      9268.00  5.83299e-17
      9270.00  6.10037e-17
      9272.00  6.82551e-17
      9274.00  6.05076e-17
      9276.00  6.31473e-17
      9278.00  6.44993e-17
      9280.00  6.70307e-17
      9282.00  7.30851e-17
      9284.00  6.82628e-17
      9286.00  6.72822e-17
      9288.00  6.77486e-17
      9290.00  6.25287e-17
      9292.00  6.03625e-17
      9294.00  7.31718e-17
      9296.00  7.15430e-17
      9298.00  7.05300e-17
      9300.00  8.06805e-17
      9302.00  8.68285e-17
      9304.00  8.14710e-17
      9306.00  9.47279e-17
      9308.00  7.22177e-17
      9310.00  3.40187e-17
      9312.00  3.87664e-17
      9314.00  1.77423e-17
      9316.00  3.15439e-17
      9318.00  9.25878e-17
      9320.00  8.44421e-17
      9322.00  8.47934e-17
      9324.00  6.80389e-17
      9326.00  7.89493e-17
      9328.00  5.17189e-17
      9330.00  5.09124e-17
      9332.00  7.96289e-17
      9334.00  9.69125e-17
      9336.00  8.61906e-17
      9338.00  8.42241e-17
      9340.00  7.15301e-17
      9342.00  6.21931e-17
      9344.00  9.17602e-17
      9346.00  9.73286e-17
      9348.00  1.20299e-16
      9350.00  6.35798e-17
      9352.00  7.41316e-17
      9354.00  7.68759e-17
      9356.00  1.00295e-16
      9358.00  8.62109e-17
      9360.00  8.16088e-17
      9362.00  7.03382e-17
      9364.00  7.76772e-17
      9366.00  7.82770e-17
      9368.00  9.88526e-17
      9370.00  1.59296e-16
      9372.00  1.44982e-16
      9374.00  1.19180e-16
      9376.00  6.72641e-17
      9378.00 -9.77804e-18
      9380.00  7.33994e-17
      9382.00  8.79432e-17
      9384.00  1.20541e-16
      9386.00  6.87859e-17
      9388.00  8.74282e-17
      9390.00  8.39327e-17
      9392.00  7.98622e-17
      9394.00  6.97816e-17
      9396.00  7.76841e-17
      9398.00  7.29395e-17
      9400.00  6.68072e-17
      9402.00  6.77622e-17
      9404.00  5.33003e-17
      9406.00  5.69765e-17
      9408.00  6.61709e-17
      9410.00  7.54788e-17
      9412.00  6.74079e-17
      9414.00  7.34195e-17
      9416.00  8.17721e-17
      9418.00  8.31481e-17
      9420.00  7.10740e-17
      9422.00  4.78816e-17
      9424.00  5.49650e-17
      9426.00  5.41374e-17
      9428.00  7.16677e-17
      9430.00  7.58482e-17
      9432.00  8.26379e-17
      9434.00  9.92944e-17
      9436.00  6.96176e-17
      9438.00  7.12674e-17
      9440.00  7.29949e-17
      9442.00  3.90370e-17
      9444.00  4.63343e-17
      9446.00  7.94268e-17
      9448.00  6.25229e-17
      9450.00  7.81546e-17
      9452.00  9.51732e-17
      9454.00  8.94745e-17
      9456.00  6.32217e-17
      9458.00  7.78416e-17
      9460.00  6.50122e-17
      9462.00  5.74155e-17
      9464.00  4.77253e-17
      9466.00  7.11803e-17
      9468.00  8.28563e-17
      9470.00  8.77913e-17
      9472.00  1.02216e-16
      9474.00  9.21726e-17
      9476.00  7.09767e-17
      9478.00  6.29995e-17
      9480.00  5.30385e-17
      9482.00  5.73108e-17
      9484.00  8.73280e-17
      9486.00  8.03488e-17
      9488.00  6.05975e-17
      9490.00  6.36647e-17
      9492.00  6.61122e-17
      9494.00  7.92972e-17
      9496.00  7.04028e-17
      9498.00  8.74219e-17
      9500.00  9.13292e-17
      9502.00  8.60471e-17
      9504.00  5.43250e-17
      9506.00  4.36737e-17
      9508.00  7.66617e-17
      9510.00  7.09773e-17
      9512.00  9.09895e-17
      9514.00  7.86668e-17
      9516.00  8.01514e-17
      9518.00  7.00711e-17
      9520.00  9.30539e-17
      9522.00  7.13457e-17
      9524.00  7.23510e-17
      9526.00  7.94013e-17
      9528.00  6.89854e-17
      9530.00  7.79344e-17
      9532.00  7.65164e-17
      9534.00  7.64582e-17
      9536.00  8.07271e-17
      9538.00  8.50568e-17
      9540.00  7.90794e-17
      9542.00  5.88464e-17
      9544.00  6.47043e-17
      9546.00  5.49202e-17
      9548.00  7.70131e-17
      9550.00  7.25255e-17
      9552.00  5.02742e-17
      9554.00  5.71333e-17
      9556.00  8.98678e-17
      9558.00  8.39223e-17
      9560.00  7.44075e-17
      9562.00  7.93313e-17
      9564.00  1.03080e-16
      9566.00  7.11654e-17
      9568.00  5.91402e-17
      9570.00  8.59055e-17
      9572.00  4.18308e-17
      9574.00  6.15888e-17
      9576.00  7.09930e-17
      9578.00  6.23498e-17
      9580.00  7.06368e-17
      9582.00  6.31099e-17
      9584.00  6.31139e-17
      9586.00  6.11033e-17
      9588.00  5.87869e-17
      9590.00  6.53113e-17
      9592.00  7.25418e-17
      9594.00  6.16317e-17
      9596.00  6.37133e-17
      9598.00  7.54138e-17
      9600.00  6.54138e-17
      9602.00  7.56719e-17
      9604.00  8.02724e-17
      9606.00  5.90715e-17
      9608.00  7.56577e-17
      9610.00  5.35326e-17
      9612.00  5.57844e-17
      9614.00  6.34455e-17
      9616.00  7.36967e-17
      9618.00  7.96323e-17
      9620.00  6.94742e-17
      9622.00  5.68056e-17
      9624.00  5.44055e-17
      9626.00  7.94523e-17
      9628.00  7.52567e-17
      9630.00  6.97795e-17
      9632.00  7.54285e-17
      9634.00  6.05448e-17
      9636.00  6.97430e-17
      9638.00  6.74670e-17
      9640.00  6.27243e-17
      9642.00  6.67981e-17
      9644.00  6.83291e-17
      9646.00  6.98429e-17
      9648.00  6.65387e-17
      9650.00  7.29034e-17
      9652.00  6.96304e-17
      9654.00  7.46694e-17
      9656.00  5.62462e-17
      9658.00  6.63961e-17
      9660.00  5.90138e-17
      9662.00  6.57738e-17
      9664.00  6.43810e-17
      9666.00  7.81139e-17
      9668.00  9.27150e-17
      9670.00  4.79977e-17
      9672.00  5.87898e-17
      9674.00  5.86293e-17
      9676.00  6.55691e-17
      9678.00  7.15021e-17
      9680.00  7.93628e-17
      9682.00  7.82916e-17
      9684.00  6.03315e-17
      9686.00  5.02610e-17
      9688.00  6.69570e-17
      9690.00  6.83012e-17
      9692.00  6.78963e-17
      9694.00  8.65435e-17
      9696.00  6.62797e-17
      9698.00  5.60510e-17
      9700.00  6.01175e-17
      9702.00  5.92396e-17
      9704.00  6.65937e-17
      9706.00  6.45496e-17
      9708.00  6.93475e-17
      9710.00  7.37258e-17
      9712.00  7.62444e-17
      9714.00  7.52831e-17
      9716.00  7.92187e-17
      9718.00  7.73122e-17
      9720.00  6.16566e-17
      9722.00  4.96252e-17
      9724.00  4.11279e-17
      9726.00  4.98355e-17
      9728.00  6.58935e-17
      9730.00  7.38604e-17
      9732.00  6.98761e-17
      9734.00  7.69799e-17
      9736.00  8.03604e-17
      9738.00  7.53974e-17
      9740.00  5.99202e-17
      9742.00  6.14755e-17
      9744.00  6.42558e-17
      9746.00  7.20725e-17
      9748.00  6.94555e-17
      9750.00  6.44174e-17
      9752.00  7.17021e-17
      9754.00  5.73652e-17
      9756.00  6.80585e-17
      9758.00  5.51709e-17
      9760.00  5.28399e-17
      9762.00  5.08839e-17
      9764.00  6.38475e-17
      9766.00  6.84031e-17
      9768.00  6.13553e-17
      9770.00  4.49987e-17
      9772.00  5.32776e-17
      9774.00  6.09122e-17
      9776.00  5.60069e-17
      9778.00  6.11746e-17
      9780.00  6.78963e-17
      9782.00  6.51715e-17
      9784.00  6.14125e-17
      9786.00  6.89278e-17
      9788.00  7.44451e-17
      9790.00  6.59638e-17
      9792.00  5.27994e-17
      9794.00  7.38463e-17
      9796.00  6.67350e-17
      9798.00  7.00397e-17
      9800.00  7.12824e-17
      9802.00  6.40376e-17
      9804.00  7.23531e-17
      9806.00  6.45571e-17
      9808.00  7.10509e-17
      9810.00  7.79125e-17
      9812.00  8.39375e-17
      9814.00  7.77766e-17
      9816.00  7.11026e-17
      9818.00  7.24942e-17
      9820.00  5.17619e-17
      9822.00  7.41707e-17
      9824.00  6.74393e-17
      9826.00  6.06115e-17
      9828.00  5.70630e-17
      9830.00  6.48261e-17
      9832.00  6.58241e-17
      9834.00  6.98583e-17
      9836.00  7.39539e-17
      9838.00  6.15035e-17
      9840.00  6.86453e-17
      9842.00  6.58474e-17
      9844.00  7.27697e-17
      9846.00  6.11423e-17
      9848.00  7.42257e-17
      9850.00  7.61487e-17
      9852.00  7.13438e-17
      9854.00  7.08997e-17
      9856.00  6.69573e-17
      9858.00  6.73490e-17
      9860.00  5.60729e-17
      9862.00  5.62680e-17
      9864.00  6.24712e-17
      9866.00  7.61991e-17
      9868.00  8.24903e-17
      9870.00  5.99028e-17
      9872.00  5.44930e-17
      9874.00  5.07946e-17
      9876.00  4.12906e-17
      9878.00  5.06992e-17
      9880.00  5.61997e-17
      9882.00  5.91857e-17
      9884.00  6.80815e-17
      9886.00  6.75092e-17
      9888.00  6.46335e-17
      9890.00  8.49589e-17
      9892.00  6.60659e-17
      9894.00  6.83439e-17
      9896.00  6.55089e-17
      9898.00  6.39897e-17
      9900.00  6.19226e-17
      9902.00  5.83191e-17
      9904.00  4.32410e-17
      9906.00  6.45765e-17
      9908.00  5.37559e-17
      9910.00  6.73018e-17
      9912.00  8.04916e-17
      9914.00  7.17837e-17
      9916.00  6.70937e-17
      9918.00  4.84989e-17
      9920.00  4.32606e-17
      9922.00  5.18452e-17
      9924.00  5.99802e-17
      9926.00  6.46044e-17
      9928.00  5.94352e-17
      9930.00  7.48811e-17
      9932.00  8.43436e-17
      9934.00  6.74117e-17
      9936.00  6.90265e-17
      9938.00  7.41019e-17
      9940.00  6.74865e-17
      9942.00  7.28100e-17
      9944.00  8.09863e-17
      9946.00  9.02247e-17
      9948.00  8.29345e-17
      9950.00  5.46453e-17
      9952.00  4.31187e-17
      9954.00  2.72784e-17
      9956.00  3.55471e-17
      9958.00  4.29275e-17
      9960.00  2.50161e-17
      9962.00  9.41374e-17
      9964.00  7.47123e-17
      9966.00  5.27982e-17
      9968.00  7.34447e-17
      9970.00  5.45994e-17
      9972.00  9.21555e-17
      9974.00  6.43660e-17
      9976.00  6.06302e-17
      9978.00  5.88175e-17
      9980.00  6.28693e-17
      9982.00  6.47782e-17
      9984.00  5.35306e-17
      9986.00  6.00743e-17
      9988.00  4.85936e-17
      9990.00  5.55204e-17
      9992.00  5.86754e-17
      9994.00  6.71403e-17
      9996.00  7.80115e-17
      9998.00  5.54312e-17
      10000.0  6.41941e-17
      10002.0  6.39234e-17
      10004.0  7.11908e-17
      10006.0  8.54470e-17
      10008.0  1.29344e-16
      10010.0  1.14272e-16
      10012.0  2.26017e-17
      10014.0  6.52060e-17
      10016.0  9.23549e-17
      10018.0  5.07703e-17
      10020.0  4.28343e-17
      10022.0  7.41825e-17
      10024.0  5.83863e-17
      10026.0  6.80101e-17
      10028.0  7.80685e-17
      10030.0  1.05347e-16
      10032.0  6.85348e-17
      10034.0  7.56786e-17
      10036.0  7.66876e-17
      10038.0  6.52400e-17
      10040.0  8.48388e-17
      10042.0  5.30463e-17
      10044.0  6.75363e-17
      10046.0  7.15006e-17
      10048.0  8.13084e-17
      10050.0  7.53477e-17
      10052.0  8.50421e-17
      10054.0  6.00008e-17
      10056.0  8.28225e-17
      10058.0  1.01303e-16
      10060.0  8.82974e-17
      10062.0  4.58720e-17
      10064.0  6.55123e-17
      10066.0  8.68125e-17
      10068.0  5.41305e-17
      10070.0  5.45224e-17
      10072.0  4.14474e-17
      10074.0  5.98832e-17
      10076.0  8.62387e-17
      10078.0  9.66406e-17
      10080.0  9.82021e-17
      10082.0  9.34279e-17
      10084.0  4.91190e-17
      10086.0  6.14578e-17
      10088.0  7.45842e-17
      10090.0  3.14991e-17
      10092.0  2.88092e-17
      10094.0  5.96451e-17
      10096.0  4.26154e-17
      10098.0  8.28630e-17
      10100.0  8.16330e-17
      10102.0  8.98187e-17
      10104.0  1.01096e-16
      10106.0  5.25112e-17
      10108.0  2.58758e-17
      10110.0  5.33661e-17
      10112.0  5.86685e-17
      10114.0  5.75545e-17
      10116.0  5.74256e-17
      10118.0  6.18078e-17
      10120.0  9.24689e-17
      10122.0  8.19958e-17
      10124.0  3.14455e-17
      10126.0  4.91013e-17
      10128.0  9.57422e-17
      10130.0  6.63091e-17
      10132.0  8.55667e-17
      10134.0  6.48697e-17
      10136.0  5.92184e-17
      10138.0  1.27346e-17
      10140.0  3.16187e-17
      10142.0  4.16834e-17
      10144.0  6.27963e-17
      10146.0  4.95563e-17
      10148.0  3.42453e-17
      10150.0  9.25885e-17
      10152.0  7.23543e-17
      10154.0  7.69247e-17
      10156.0  6.12250e-17
      10158.0  6.95098e-17
      10160.0  5.83572e-17
      10162.0  7.65507e-17
      10164.0  5.91360e-17
      10166.0  6.67379e-17
      10168.0  7.38078e-17
      10170.0  4.56216e-17
      10172.0  8.12739e-17
      10174.0  2.67413e-17
      10176.0  3.04875e-17
      10178.0  5.30439e-17
      10180.0  1.01699e-16
      10182.0  6.48761e-17
      10184.0  6.83792e-17
      10186.0  6.11903e-17
      10188.0  5.42333e-17
      10190.0  4.26278e-17
      10192.0  2.70149e-17
      10194.0  4.09799e-17
      10196.0  6.94405e-17
      10198.0  5.74114e-17
      10200.0  4.90023e-17
      10202.0  8.83719e-17
      10204.0  4.11285e-17
      10206.0  7.76881e-17
      10208.0  9.31011e-17
      10210.0  1.06838e-16
      10212.0  8.77578e-17
      10214.0  5.17584e-17
      10216.0  2.94058e-17
      10218.0  4.33009e-17
      10220.0  1.30443e-16
      10222.0  7.10570e-17
      10224.0  7.70736e-17
      10226.0  7.07133e-17
      10228.0  7.90792e-17
      10230.0  8.07429e-17
      10232.0  6.22276e-17
      10234.0  8.48693e-17
      10236.0  3.53974e-17
      10238.0  5.99739e-17
      10240.0  4.93371e-17
      10242.0  9.53801e-17
      10244.0  8.01729e-17
      10246.0  7.88411e-17
      10248.0  9.06522e-17
      10250.0  8.93468e-17
      10252.0  6.56856e-17
      10254.0  3.84742e-17
      10256.0  9.35122e-17
      10258.0  4.20318e-17
      10260.0  7.81032e-17
      10262.0  2.32176e-17
      10264.0  6.46622e-17
      10266.0  8.15021e-17
      10268.0  7.21131e-17
      10270.0  5.00750e-17
      10272.0  6.57114e-17
      10274.0  5.28387e-17
      10276.0  3.72702e-17
      10278.0  9.64317e-17
      10280.0  4.01150e-17
      10282.0  7.03229e-17
      10284.0  9.88210e-17
      10286.0  4.60515e-17
      10288.0 -7.79235e-17
      10290.0  5.57027e-17
      10292.0  6.51057e-17
      10294.0  9.49862e-17
      10296.0  5.52093e-17
      10298.0 -3.44805e-17
      10300.0  3.01200e-17
      10302.0  2.56752e-17
      10304.0  9.68645e-17
      10306.0  4.90628e-18
      10308.0  5.02569e-17
      10310.0 -3.56845e-17
      10312.0  6.05991e-17
      10314.0  7.32030e-17
      10316.0  6.69883e-17
      10318.0  4.62877e-17
      10320.0 -2.23716e-18
      10322.0  8.40424e-17
      10324.0  9.44507e-17
      10326.0  7.57261e-17
      10328.0  1.38913e-17
      10330.0  3.74096e-17
      10332.0  6.41462e-17
      10334.0  6.38448e-17
      10336.0  9.97340e-17
      10338.0  2.90497e-17
      10340.0  4.67791e-17
      10342.0  6.51852e-17
      10344.0  6.92759e-17
      10346.0  3.92600e-17
      10348.0  5.00435e-17
      10350.0  4.98160e-17
      10352.0  1.02939e-16
      10354.0  3.07745e-17
      10356.0  6.02205e-20
      10358.0  7.12481e-17
      10360.0 -8.32979e-18
      10362.0  1.06767e-17
      10364.0  1.48441e-17
      10366.0  4.87856e-17
      10368.0  2.86725e-17
      10370.0  7.10682e-17
      10372.0  1.20409e-17
      10374.0  1.15601e-17
      10376.0  8.63369e-17
      10378.0  9.56449e-17
      10380.0  6.40209e-17
      10382.0  8.04527e-17
      10384.0  2.68247e-17
      10386.0 -5.04489e-18
      10388.0  8.67685e-17
      10390.0  4.83223e-17
      10392.0  7.06389e-17
      10394.0  3.48886e-17
      10396.0  6.89074e-17
      10398.0  3.22511e-17
      10400.0  1.25221e-17
      10402.0  1.59591e-17
      10404.0  2.53398e-18
      10406.0  6.87581e-17
      10408.0  5.04683e-18
      10410.0  3.35532e-17
      10412.0  9.59816e-18
      10414.0  6.58439e-17
      10416.0  1.70699e-17
      10418.0  2.81213e-17
      10420.0  1.12330e-16
      10422.0  5.91835e-17
      10424.0  1.86178e-17
      10426.0  3.96750e-18
      10428.0  3.77830e-17
      10430.0 -2.57479e-17
      10432.0  3.95938e-17
      10434.0 -2.98156e-18
      10436.0  2.21133e-17
      10438.0 -7.63954e-19
      10440.0  1.64165e-17
      10442.0  2.45216e-17
      10444.0  5.38084e-18
      10446.0  4.52373e-17
      10448.0 -4.37554e-17
      10450.0  6.02110e-17
      10452.0  7.26301e-18
      10454.0  3.25515e-17
      10456.0  2.61155e-17
      10458.0  3.16033e-17
      10460.0  2.79617e-17
      10462.0  2.74371e-17
      10464.0  6.96936e-17
      10466.0  4.53209e-17
      10468.0  5.56203e-17
      10470.0  1.98084e-18
      10472.0  3.33788e-17
      10474.0 -9.20140e-18
      10476.0  4.42389e-17
      10478.0  2.75020e-17
      10480.0  2.49321e-17
      10482.0  1.53211e-17
      10484.0  1.82232e-17
      10486.0  9.57786e-18
      10488.0 -1.48806e-17
      10490.0  1.03190e-16
      10492.0 -5.16947e-18
      10494.0  3.43218e-17
      10496.0  4.41716e-17
      10498.0  4.64609e-17
      10500.0 -7.02044e-18
