# SIMPLE = T / Written by IDL: Sun Jul 29 10:28:03 2012 
# BITPIX = -32 / IEEE single precision floating point 
# NAXIS = 1 / Number of axes 
# NAXIS1 = 3501 / 
# EXTEND = T / File may contain extensions 
# ORIGIN = 'NOAO-IRAF FITS Image Kernel July 2003' / FITS file originator 
# DATE = '2012-07-29T06:07:05' / Date FITS file was generated 
# IRAF-TLM= '2012-07-29T06:07:05' / Time of last modification 
# COMMENT FITS (Flexible Image Transport System) format defined in Astronomy and
# COMMENT Astrophysics Supplement Series v44/p363, v44/p371, v73/p359, v73/p365.
# COMMENT Contact the NASA Science Office of Standards and Technology for the 
# COMMENT FITS Definition document #100 and other FITS information. 
# OBJECT = 'PTF12gxc' / object title 
# OBSERVER= 'Iair Arcavi' / observer 
# IMGTYPE = ' ' / observation type 
# GAIN = 2.8 / e-/adu 
# RON = 8.5 / system noise 
# DICHROIC= 'D55 ' / Dichroic 
# APERTURE= '1.0 ' / aperture (arcsecs) 
# TURRET = 'APERTURE' / turret position 
# LAMPS = '0000000 ' / lamps: D-FeAr-Hg-Ar-Ne-He-InCand 
# RFILTER = 'OPEN ' / filter wheel 
# OEXPTIME= 600. / originaly req. exposure time 
# EXPTIME = 600. / actual exposure time 
# UTSHUT = '2012-07-27T03:55:29.652' / UT shutter open 
# NAMPSXY = '1 1 ' / number of amplifiers in y x 
# CCDSUM = '1 1 ' / binning in x y 
# ASEC1 = '[1:4141,1:440]' / amplifier section 1(LL) 
# BSEC1 = '[4122:4141,1:440]' / bias section 1(LL) 
# CSEC1 = '[1:4121,1:440]' / ccd section 1(LL) 
# DSEC1 = '[1:4121,1:440]' / data section 1(LL) 
# TSEC1 = '[8:4121,1:440]' / trim section 1(LL) 
# ROISEC = '[1:4114,790:1229]' / roi section 
# DETID = 'LBNL_4Kx2K_1' / detector ID 
# DETNUM = '1 ' / Detector Number 
# DETNAM = 'LBNL_4Kx2K' / detector name 
# FPA = 'DBSP_RED2' / focal plan array 
# UTC = '209 03:55:29.6' / <elapsed days> <time-obs> 
# UT = '03:55:29.6' / time-obs 
# OBSLST = '16:28:59.9' / lst-obs 
# RA = '15:11:52.47' / Right Ascencion 
# DEC = '+06:09:47.3' / Declination 
# HOURANG = 'W01:16:28.7' / Hour angle, TCS format 
# HA = '+01:16:28.7' / Hour angle 
# AIRMASS = '1.194907' / Airmass 
# TELID = '200 ' / telescope ID 
# TELFOCUS= '40.29 mm' / focus position 
# CASSPA = '33.00 ' / cass ring angle 
# PARALLAC= '30.65 ' / parallactic angle 
# DHE = 'SDSU Gen III' / controller info 
# CCDTEMP = '118.010 ' / detector mount temp 
# SOFTVER = '3.4 ' / software version 
# HDR_REV = '4.3 ' / gfits version 
# GCOMMENT= ' ' / comment 
# ANGLE = '24 deg 38 min' / Grating Angle 
# GRATING = '316/7500' / lines/mm & Blaze 
# CRVAL1 = 3300.00 / 
# OBSNUM = 85 
# CRPIX1 = 1 / 
# DATE-OBS= '2012-07-27' 
# OBSERVAT= 'palomar ' 
# TIME = '03:55:29.6' 
# OPT_PA = 32.149151935776 
# IMCMB001= 'red0085 ' 
# IMCMB002= 'red0086 ' 
# IMCMB003= 'red0087 ' 
# NCOMBINE= 3 
# TELESCOP= 'P200 ' 
# ST = '16:28:59.13' 
# EPOCH = 2012.56855177834 
# UTMIDDLE= '2012-07-27T04:00:29.60' 
# BANDID1 = 'spectrum - background fit, weights variance, clean yes' 
# BANDID2 = 'raw - background fit, weights none, clean no' 
# BANDID3 = 'background - background fit' 
# BANDID4 = 'sigma - background fit, weights variance, clean yes' 
# APNUM1 = '1 1 124.41 136.41' 
# DC-FLAG = 0 
# DCLOG1 = 'REFSPEC1 = arc_redc.ms' 
# FLUX_Z = 1.06103800000 / 
# FLUX_NUM= 81 / 
# FLUX_OBJ= 'BD+262606' / 
# OBS_PA = 33.0000000000 /observed position angle 
# CDELT1 = 2.00000 / 
# CTYPE1 = 'LINEAR ' / 
# W_RANGE = '5300 10300' / 
# BSTAR_Z = 1.06103800000 / 
# BSTARNUM= 81 / 
# BSTAROBJ= 'BD+262606' / 
# BARYVEL = -8.10794595234 / 
# SKYSHIFT= 2.29213304926 / 
# ATMSHIFT= 1.91005921646 / 
# EXTRACT = 'optimal ' / 
# REDUCER = 'ofer ' / 
# RED_DATE= 'Sun Jul 29 10:28:03 2012' /EPOCH OF REDUCTION 
# END 
# 
      3300.00 -3.28130e-17
      3302.00  3.26073e-17
      3304.00  3.49154e-17
      3306.00  2.43733e-17
      3308.00 -1.03892e-17
      3310.00  9.55679e-18
      3312.00  7.64172e-18
      3314.00  1.02250e-18
      3316.00  3.19946e-17
      3318.00 -8.32708e-18
      3320.00 -4.93831e-18
      3322.00  2.29989e-17
      3324.00 -1.16725e-17
      3326.00  4.26378e-17
      3328.00 -1.30388e-17
      3330.00  6.07455e-18
      3332.00  1.76358e-17
      3334.00 -1.12337e-17
      3336.00  1.41271e-17
      3338.00  1.17208e-17
      3340.00  1.10768e-17
      3342.00 -9.70159e-18
      3344.00 -1.19756e-17
      3346.00 -1.38309e-18
      3348.00  5.62260e-18
      3350.00  1.03600e-17
      3352.00  5.21222e-17
      3354.00 -9.95564e-18
      3356.00 -2.26751e-19
      3358.00  3.09343e-17
      3360.00  2.17894e-17
      3362.00  1.35972e-17
      3364.00  2.31238e-17
      3366.00  6.39277e-18
      3368.00  4.53280e-17
      3370.00 -2.68190e-18
      3372.00 -1.15446e-17
      3374.00  1.91339e-17
      3376.00  4.20492e-17
      3378.00  1.87040e-17
      3380.00  4.60682e-17
      3382.00  3.22721e-17
      3384.00  1.14022e-17
      3386.00 -1.56780e-17
      3388.00  8.18005e-18
      3390.00 -2.76264e-18
      3392.00  6.74913e-18
      3394.00 -1.61162e-18
      3396.00  7.23666e-19
      3398.00  2.95230e-18
      3400.00  1.60114e-17
      3402.00  4.30251e-17
      3404.00  1.41582e-17
      3406.00  1.09734e-17
      3408.00  1.80563e-17
      3410.00  1.71398e-17
      3412.00 -8.19906e-18
      3414.00  3.51718e-17
      3416.00  4.84303e-18
      3418.00 -1.65928e-17
      3420.00  1.01486e-17
      3422.00  5.33052e-18
      3424.00  3.39038e-17
      3426.00  1.10050e-17
      3428.00  3.32828e-18
      3430.00 -6.08734e-18
      3432.00  2.11419e-18
      3434.00  2.12615e-17
      3436.00  2.51191e-18
      3438.00  3.52038e-17
      3440.00  3.00241e-18
      3442.00 -7.04707e-18
      3444.00  2.37734e-18
      3446.00 -3.33261e-18
      3448.00  2.06682e-17
      3450.00  2.05601e-17
      3452.00  2.41254e-17
      3454.00  2.12407e-17
      3456.00  3.24623e-17
      3458.00  9.84821e-18
      3460.00  1.52997e-18
      3462.00  6.03292e-18
      3464.00  5.30432e-19
      3466.00  9.31471e-18
      3468.00  9.53471e-18
      3470.00  2.41983e-17
      3472.00  3.66093e-17
      3474.00  7.85775e-18
      3476.00  1.72255e-17
      3478.00  5.33367e-17
      3480.00  1.70262e-17
      3482.00  1.80337e-17
      3484.00  1.50664e-17
      3486.00  4.27864e-18
      3488.00  7.28557e-18
      3490.00  2.94913e-18
      3492.00  1.33089e-17
      3494.00  2.12250e-17
      3496.00 -4.52940e-18
      3498.00  9.36137e-18
      3500.00  1.62731e-17
      3502.00  1.05619e-17
      3504.00 -9.49051e-18
      3506.00  1.83845e-17
      3508.00  1.60184e-17
      3510.00  1.08454e-17
      3512.00  2.32444e-17
      3514.00  2.23270e-17
      3516.00  2.99904e-17
      3518.00  4.04130e-17
      3520.00  1.21454e-17
      3522.00  2.83846e-17
      3524.00  3.11102e-17
      3526.00 -3.20548e-18
      3528.00  7.36523e-18
      3530.00  1.85928e-17
      3532.00  6.23924e-18
      3534.00  1.95160e-19
      3536.00  1.43300e-17
      3538.00  2.86585e-17
      3540.00  2.57057e-17
      3542.00  2.73775e-17
      3544.00  1.33352e-17
      3546.00  3.64622e-17
      3548.00  1.14278e-17
      3550.00  1.11170e-17
      3552.00  1.44611e-17
      3554.00  2.49702e-17
      3556.00  2.87181e-17
      3558.00  2.52521e-17
      3560.00 -2.34146e-18
      3562.00  7.67621e-18
      3564.00  4.14302e-19
      3566.00  1.55447e-17
      3568.00  1.62172e-17
      3570.00  2.48803e-17
      3572.00  2.91149e-17
      3574.00  5.81208e-18
      3576.00  8.87175e-18
      3578.00  1.26388e-17
      3580.00  8.32909e-18
      3582.00  1.42756e-17
      3584.00  7.98366e-18
      3586.00 -3.75201e-18
      3588.00  6.95629e-18
      3590.00  2.32238e-17
      3592.00  2.89051e-17
      3594.00  6.09104e-18
      3596.00  1.16939e-17
      3598.00  1.16143e-17
      3600.00  3.16082e-17
      3602.00  1.15503e-17
      3604.00 -3.27463e-18
      3606.00  1.93592e-17
      3608.00 -3.27649e-18
      3610.00  5.57681e-18
      3612.00  1.73336e-17
      3614.00  2.23561e-17
      3616.00  3.13787e-17
      3618.00  1.56034e-17
      3620.00  3.81386e-18
      3622.00 -7.57895e-18
      3624.00  3.80812e-18
      3626.00 -4.85128e-18
      3628.00  3.27194e-18
      3630.00  9.89491e-18
      3632.00  1.45290e-17
      3634.00  1.60675e-17
      3636.00  3.59231e-17
      3638.00  3.33835e-17
      3640.00  3.19649e-17
      3642.00 -8.10583e-20
      3644.00  2.92180e-17
      3646.00  2.29988e-17
      3648.00  3.46503e-17
      3650.00  5.25812e-18
      3652.00  2.49711e-17
      3654.00  1.86705e-17
      3656.00 -4.22914e-18
      3658.00  1.51748e-17
      3660.00  1.59024e-17
      3662.00  2.56832e-17
      3664.00  2.21333e-17
      3666.00  1.00899e-17
      3668.00  2.20266e-17
      3670.00  2.16832e-18
      3672.00  1.01877e-17
      3674.00  2.70672e-17
      3676.00  9.22465e-18
      3678.00  1.52058e-17
      3680.00  2.74567e-17
      3682.00  2.45003e-17
      3684.00  1.67490e-17
      3686.00  1.40785e-17
      3688.00  2.16133e-17
      3690.00 -6.51565e-19
      3692.00  3.21131e-17
      3694.00  3.52055e-17
      3696.00  1.72989e-17
      3698.00  2.83531e-17
      3700.00  2.34892e-17
      3702.00  3.28479e-18
      3704.00  2.33156e-17
      3706.00  8.41052e-18
      3708.00  9.52562e-18
      3710.00  2.12419e-18
      3712.00  1.23890e-17
      3714.00  2.67676e-17
      3716.00  4.88591e-18
      3718.00  2.57043e-17
      3720.00  2.03425e-17
      3722.00 -1.86783e-19
      3724.00  1.29018e-17
      3726.00  4.73961e-18
      3728.00  1.77304e-19
      3730.00  2.11608e-17
      3732.00  1.81676e-17
      3734.00  1.28514e-17
      3736.00  6.58874e-18
      3738.00  7.33243e-18
      3740.00  1.04449e-17
      3742.00  9.76607e-18
      3744.00  1.14052e-17
      3746.00  8.54128e-18
      3748.00  1.95524e-17
      3750.00  1.75419e-17
      3752.00  1.02049e-17
      3754.00  1.00125e-17
      3756.00  1.76307e-17
      3758.00  1.47910e-17
      3760.00  1.30576e-17
      3762.00  1.06745e-17
      3764.00  1.21926e-17
      3766.00  2.60227e-17
      3768.00  1.06422e-17
      3770.00  4.24076e-18
      3772.00  2.50938e-17
      3774.00  2.25644e-17
      3776.00  2.06198e-18
      3778.00  1.20596e-17
      3780.00  1.35977e-17
      3782.00  2.39033e-17
      3784.00  9.46995e-18
      3786.00  2.49576e-18
      3788.00  1.37579e-17
      3790.00  1.74120e-17
      3792.00  2.10745e-17
      3794.00  1.20727e-17
      3796.00  1.94388e-17
      3798.00 -1.50975e-18
      3800.00  1.23388e-17
      3802.00  1.24855e-17
      3804.00  3.90564e-18
      3806.00  1.89766e-17
      3808.00  1.91426e-17
      3810.00  1.14339e-17
      3812.00  8.07912e-18
      3814.00  1.80528e-17
      3816.00  1.85767e-17
      3818.00  2.19812e-17
      3820.00  1.59192e-17
      3822.00  8.74786e-18
      3824.00  6.64397e-18
      3826.00  1.62749e-17
      3828.00  1.41036e-17
      3830.00  8.74264e-18
      3832.00  1.73503e-17
      3834.00  1.27450e-17
      3836.00  6.72441e-18
      3838.00  1.24286e-17
      3840.00  1.93077e-17
      3842.00  1.71266e-17
      3844.00  2.15291e-18
      3846.00  1.32567e-17
      3848.00  1.36615e-17
      3850.00  1.40611e-17
      3852.00  2.31935e-17
      3854.00  1.36947e-17
      3856.00  1.48404e-17
      3858.00  1.96390e-17
      3860.00  1.55486e-17
      3862.00  1.57069e-18
      3864.00  1.23932e-17
      3866.00  1.25799e-17
      3868.00  1.41062e-17
      3870.00  2.16616e-17
      3872.00  3.20288e-17
      3874.00  1.51985e-17
      3876.00  2.50024e-17
      3878.00  2.64813e-17
      3880.00  1.62485e-17
      3882.00  1.20322e-17
      3884.00  1.13163e-17
      3886.00  1.50588e-17
      3888.00  8.32865e-18
      3890.00  8.01256e-18
      3892.00  1.62307e-17
      3894.00  6.27601e-18
      3896.00  1.20198e-17
      3898.00  1.29531e-17
      3900.00  5.67139e-18
      3902.00  1.63988e-17
      3904.00  1.02720e-17
      3906.00  1.98225e-17
      3908.00  2.39071e-17
      3910.00  1.27503e-17
      3912.00  9.15691e-18
      3914.00  2.45072e-17
      3916.00  1.79063e-17
      3918.00  2.18851e-17
      3920.00  1.95739e-17
      3922.00  2.01113e-17
      3924.00  1.98389e-17
      3926.00  1.62928e-17
      3928.00  8.03758e-18
      3930.00  1.99626e-17
      3932.00  1.70852e-17
      3934.00  1.44364e-17
      3936.00  1.28634e-17
      3938.00  1.45566e-17
      3940.00  2.78003e-17
      3942.00  1.33923e-17
      3944.00  1.70964e-17
      3946.00  1.37900e-17
      3948.00  1.90419e-17
      3950.00  1.82853e-17
      3952.00  2.91140e-17
      3954.00  1.50910e-17
      3956.00  2.18485e-17
      3958.00  1.73680e-17
      3960.00  1.95331e-17
      3962.00  1.57859e-17
      3964.00  1.11905e-17
      3966.00  2.66931e-17
      3968.00  9.66508e-18
      3970.00  1.81504e-17
      3972.00  2.37338e-17
      3974.00  1.63937e-17
      3976.00  1.88539e-17
      3978.00  1.20248e-17
      3980.00  2.67131e-17
      3982.00  2.60648e-17
      3984.00  1.64150e-17
      3986.00  2.68884e-17
      3988.00  2.98106e-17
      3990.00  3.15744e-17
      3992.00  2.09215e-17
      3994.00  2.37793e-17
      3996.00  3.48561e-17
      3998.00  3.01032e-17
      4000.00  2.04040e-17
      4002.00  2.63805e-17
      4004.00  1.35920e-17
      4006.00  1.68910e-17
      4008.00  1.10589e-17
      4010.00  1.03078e-17
      4012.00  2.05128e-17
      4014.00  2.95255e-17
      4016.00  1.52065e-17
      4018.00  2.59452e-17
      4020.00  1.91762e-17
      4022.00  1.96592e-17
      4024.00  3.05247e-18
      4026.00  5.27788e-18
      4028.00  8.66304e-18
      4030.00  1.85634e-17
      4032.00  5.57285e-18
      4034.00  1.66934e-17
      4036.00  6.10265e-18
      4038.00  1.82198e-17
      4040.00  2.03020e-17
      4042.00  1.28470e-17
      4044.00  1.70932e-17
      4046.00  2.60347e-17
      4048.00  1.08764e-17
      4050.00 -1.72590e-18
      4052.00  2.10942e-17
      4054.00  2.31670e-17
      4056.00  2.16488e-17
      4058.00  2.51087e-17
      4060.00  2.57714e-17
      4062.00  2.57745e-17
      4064.00  1.25717e-17
      4066.00  1.42017e-17
      4068.00  1.31063e-17
      4070.00  3.84392e-17
      4072.00  1.83731e-17
      4074.00  2.12701e-17
      4076.00  1.72712e-17
      4078.00  2.12927e-17
      4080.00  2.75033e-17
      4082.00  2.35511e-17
      4084.00  9.67416e-18
      4086.00  2.29911e-17
      4088.00  2.32713e-17
      4090.00  2.12388e-17
      4092.00  1.07039e-17
      4094.00  2.25378e-17
      4096.00  1.29252e-17
      4098.00  3.27858e-17
      4100.00  2.75387e-17
      4102.00  1.63678e-17
      4104.00  9.17602e-18
      4106.00  3.41995e-17
      4108.00  2.84771e-17
      4110.00  8.06356e-18
      4112.00  1.99640e-17
      4114.00  1.72361e-17
      4116.00  2.44406e-17
      4118.00  1.95725e-17
      4120.00 -7.61176e-18
      4122.00  2.40640e-17
      4124.00  3.10241e-18
      4126.00  1.18178e-17
      4128.00  1.67270e-17
      4130.00  1.64252e-17
      4132.00  1.85543e-17
      4134.00  6.82646e-18
      4136.00 -2.49256e-18
      4138.00  6.14413e-18
      4140.00  1.28443e-17
      4142.00  2.24958e-17
      4144.00  2.86055e-17
      4146.00  1.51791e-17
      4148.00  2.51555e-17
      4150.00  1.80863e-17
      4152.00  2.40353e-17
      4154.00  2.49630e-17
      4156.00  1.85236e-17
      4158.00  2.16100e-17
      4160.00  1.86326e-17
      4162.00  2.06155e-17
      4164.00  2.77343e-17
      4166.00  1.39798e-17
      4168.00  1.17834e-17
      4170.00  1.16395e-17
      4172.00  2.13252e-17
      4174.00  1.56479e-17
      4176.00  3.01035e-17
      4178.00  1.90889e-17
      4180.00  1.89352e-17
      4182.00  2.32089e-17
      4184.00  1.93955e-17
      4186.00  2.37272e-17
      4188.00  2.77604e-17
      4190.00  1.74910e-17
      4192.00  3.09701e-17
      4194.00  1.65857e-17
      4196.00  2.53736e-17
      4198.00  2.18177e-17
      4200.00  2.34883e-17
      4202.00  1.13550e-17
      4204.00  2.05448e-17
      4206.00  2.16686e-17
      4208.00  1.32337e-17
      4210.00  1.21998e-17
      4212.00  2.11476e-17
      4214.00  3.96916e-17
      4216.00  2.32164e-17
      4218.00  3.54244e-17
      4220.00  2.54004e-17
      4222.00  1.94542e-17
      4224.00  2.34262e-17
      4226.00  1.77450e-17
      4228.00  1.93868e-17
      4230.00  2.10471e-17
      4232.00  5.17414e-18
      4234.00  2.25271e-17
      4236.00  1.61824e-17
      4238.00  9.65163e-18
      4240.00  9.73198e-18
      4242.00  1.62802e-17
      4244.00  5.33205e-18
      4246.00  2.18879e-17
      4248.00  3.11149e-17
      4250.00  2.05157e-17
      4252.00  1.73010e-17
      4254.00  2.19296e-17
      4256.00  2.65874e-17
      4258.00  3.52417e-17
      4260.00  2.64842e-17
      4262.00  1.80499e-17
      4264.00  1.93713e-17
      4266.00  2.66999e-17
      4268.00  1.83342e-17
      4270.00  1.95297e-17
      4272.00  6.48399e-18
      4274.00  1.52622e-17
      4276.00  9.08562e-18
      4278.00  1.90600e-17
      4280.00  1.89748e-17
      4282.00  2.29651e-17
      4284.00  1.61661e-17
      4286.00  2.53979e-17
      4288.00  2.71066e-17
      4290.00  3.02891e-17
      4292.00  2.36891e-17
      4294.00  2.40677e-17
      4296.00  2.58805e-17
      4298.00  2.86603e-17
      4300.00  2.70087e-17
      4302.00  3.46295e-17
      4304.00  2.72670e-17
      4306.00  2.49281e-17
      4308.00  2.99121e-17
      4310.00  2.54364e-17
      4312.00  3.75368e-17
      4314.00  2.51620e-17
      4316.00  2.69026e-17
      4318.00  3.28307e-17
      4320.00  4.57788e-17
      4322.00  3.14805e-17
      4324.00  3.64570e-17
      4326.00  4.23677e-17
      4328.00  3.89024e-17
      4330.00  3.99052e-17
      4332.00  3.80981e-17
      4334.00  3.26694e-17
      4336.00  2.86157e-17
      4338.00  4.46541e-17
      4340.00  3.75012e-17
      4342.00  3.72737e-17
      4344.00  2.22612e-17
      4346.00  3.44230e-17
      4348.00  2.79939e-17
      4350.00  3.21811e-17
      4352.00  3.14008e-17
      4354.00  2.95972e-17
      4356.00  2.98624e-17
      4358.00  2.27926e-17
      4360.00  3.79169e-17
      4362.00  3.05538e-17
      4364.00  3.75800e-17
      4366.00  2.65855e-17
      4368.00  2.01718e-17
      4370.00  2.71580e-17
      4372.00  2.32914e-17
      4374.00  3.17006e-17
      4376.00  2.68777e-17
      4378.00  1.93505e-17
      4380.00  2.03850e-17
      4382.00  2.81325e-17
      4384.00  3.90285e-17
      4386.00  3.57319e-17
      4388.00  3.49573e-17
      4390.00  3.14020e-17
      4392.00  4.00373e-17
      4394.00  3.30770e-17
      4396.00  2.49603e-17
      4398.00  3.16458e-17
      4400.00  3.80890e-17
      4402.00  3.00124e-17
      4404.00  3.14734e-17
      4406.00  3.55259e-17
      4408.00  2.58501e-17
      4410.00  3.75126e-17
      4412.00  2.87954e-17
      4414.00  3.25707e-17
      4416.00  3.46290e-17
      4418.00  2.60546e-17
      4420.00  2.06959e-17
      4422.00  2.55635e-17
      4424.00  2.71141e-17
      4426.00  3.15619e-17
      4428.00  3.18600e-17
      4430.00  3.25238e-17
      4432.00  2.81706e-17
      4434.00  3.27682e-17
      4436.00  3.42157e-17
      4438.00  3.13871e-17
      4440.00  3.96777e-17
      4442.00  3.41437e-17
      4444.00  3.13877e-17
      4446.00  2.56246e-17
      4448.00  2.89391e-17
      4450.00  3.00897e-17
      4452.00  3.79041e-17
      4454.00  3.15607e-17
      4456.00  4.25185e-17
      4458.00  2.97128e-17
      4460.00  3.37698e-17
      4462.00  3.29410e-17
      4464.00  3.28799e-17
      4466.00  2.61507e-17
      4468.00  2.87715e-17
      4470.00  3.38619e-17
      4472.00  3.96539e-17
      4474.00  2.74856e-17
      4476.00  2.62940e-17
      4478.00  2.60185e-17
      4480.00  3.90348e-17
      4482.00  3.32034e-17
      4484.00  2.94373e-17
      4486.00  3.31068e-17
      4488.00  2.36825e-17
      4490.00  2.43243e-17
      4492.00  4.41315e-17
      4494.00  3.94792e-17
      4496.00  2.18165e-17
      4498.00  2.76193e-17
      4500.00  2.95167e-17
      4502.00  3.36722e-17
      4504.00  2.58116e-17
      4506.00  3.17700e-17
      4508.00  3.21906e-17
      4510.00  2.66193e-17
      4512.00  2.40469e-17
      4514.00  3.07475e-17
      4516.00  2.42790e-17
      4518.00  3.31089e-17
      4520.00  3.23135e-17
      4522.00  2.80570e-17
      4524.00  2.45314e-17
      4526.00  1.57944e-17
      4528.00  3.25400e-17
      4530.00  3.25013e-17
      4532.00  2.96525e-17
      4534.00  2.99992e-17
      4536.00  3.84363e-17
      4538.00  3.86632e-17
      4540.00  3.55566e-17
      4542.00  3.03060e-17
      4544.00  3.69639e-17
      4546.00  3.44911e-17
      4548.00  3.64763e-17
      4550.00  3.09891e-17
      4552.00  3.31737e-17
      4554.00  2.78407e-17
      4556.00  3.75032e-17
      4558.00  2.96888e-17
      4560.00  3.47191e-17
      4562.00  2.36773e-17
      4564.00  3.05273e-17
      4566.00  3.08387e-17
      4568.00  4.10847e-17
      4570.00  3.67609e-17
      4572.00  4.15347e-17
      4574.00  5.06034e-17
      4576.00  3.42779e-17
      4578.00  2.56341e-17
      4580.00  2.84528e-17
      4582.00  3.05562e-17
      4584.00  3.51235e-17
      4586.00  2.98457e-17
      4588.00  2.02211e-17
      4590.00  3.50432e-17
      4592.00  3.62991e-17
      4594.00  3.95743e-17
      4596.00  3.73823e-17
      4598.00  3.13854e-17
      4600.00  3.21835e-17
      4602.00  2.63562e-17
      4604.00  1.64854e-17
      4606.00  3.80321e-17
      4608.00  2.67152e-17
      4610.00  3.92092e-17
      4612.00  3.09520e-17
      4614.00  3.25433e-17
      4616.00  2.53864e-17
      4618.00  3.73176e-17
      4620.00  2.49625e-17
      4622.00  2.85192e-17
      4624.00  2.02816e-17
      4626.00  3.74579e-17
      4628.00  4.07600e-17
      4630.00  3.61039e-17
      4632.00  2.15178e-17
      4634.00  3.00790e-17
      4636.00  1.86242e-17
      4638.00  2.41844e-17
      4640.00  1.27723e-17
      4642.00  1.67589e-17
      4644.00  3.05292e-17
      4646.00  3.06855e-17
      4648.00  3.59235e-17
      4650.00  3.94266e-17
      4652.00  4.09426e-17
      4654.00  4.11268e-17
      4656.00  3.80230e-17
      4658.00  3.54649e-17
      4660.00  3.65747e-17
      4662.00  5.19475e-17
      4664.00  3.55986e-17
      4666.00  3.36081e-17
      4668.00  2.86776e-17
      4670.00  4.26517e-17
      4672.00  3.36286e-17
      4674.00  2.72192e-17
      4676.00  3.61635e-17
      4678.00  3.78244e-17
      4680.00  3.91512e-17
      4682.00  3.29325e-17
      4684.00  4.05212e-17
      4686.00  3.73413e-17
      4688.00  3.90394e-17
      4690.00  2.53331e-17
      4692.00  4.07714e-17
      4694.00  4.05230e-17
      4696.00  4.23577e-17
      4698.00  4.61287e-17
      4700.00  3.32507e-17
      4702.00  3.28673e-17
      4704.00  3.08459e-17
      4706.00  5.12845e-17
      4708.00  4.89252e-17
      4710.00  4.33464e-17
      4712.00  3.24677e-17
      4714.00  3.83756e-17
      4716.00  3.45325e-17
      4718.00  4.58934e-17
      4720.00  2.02858e-17
      4722.00  3.87875e-17
      4724.00  3.85426e-17
      4726.00  3.76570e-17
      4728.00  3.01668e-17
      4730.00  2.83953e-17
      4732.00  3.22833e-17
      4734.00  4.17213e-17
      4736.00  4.38208e-17
      4738.00  4.09042e-17
      4740.00  3.84934e-17
      4742.00  2.65377e-17
      4744.00  3.37721e-17
      4746.00  2.47468e-17
      4748.00  4.57796e-17
      4750.00  3.76299e-17
      4752.00  2.80476e-17
      4754.00  3.75232e-17
      4756.00  3.38380e-17
      4758.00  3.40074e-17
      4760.00  4.11038e-17
      4762.00  3.50017e-17
      4764.00  3.85467e-17
      4766.00  3.71551e-17
      4768.00  4.27627e-17
      4770.00  4.72206e-17
      4772.00  5.14022e-17
      4774.00  4.94302e-17
      4776.00  4.84408e-17
      4778.00  4.39601e-17
      4780.00  3.90007e-17
      4782.00  4.16587e-17
      4784.00  4.51789e-17
      4786.00  3.63626e-17
      4788.00  3.62711e-17
      4790.00  4.09241e-17
      4792.00  4.44249e-17
      4794.00  4.21162e-17
      4796.00  4.70043e-17
      4798.00  3.49842e-17
      4800.00  3.76765e-17
      4802.00  2.21537e-17
      4804.00  3.66028e-17
      4806.00  3.55561e-17
      4808.00  4.13680e-17
      4810.00  3.80925e-17
      4812.00  4.74709e-17
      4814.00  3.35078e-17
      4816.00  3.33302e-17
      4818.00  4.67100e-17
      4820.00  4.09660e-17
      4822.00  4.50559e-17
      4824.00  4.88656e-17
      4826.00  3.57157e-17
      4828.00  4.22888e-17
      4830.00  3.90791e-17
      4832.00  5.28336e-17
      4834.00  5.53292e-17
      4836.00  5.04991e-17
      4838.00  2.14225e-17
      4840.00  3.87248e-17
      4842.00  5.19519e-17
      4844.00  4.18399e-17
      4846.00  3.85823e-17
      4848.00  4.53010e-17
      4850.00  4.70942e-17
      4852.00  5.15580e-17
      4854.00  4.88579e-17
      4856.00  4.67037e-17
      4858.00  3.86315e-17
      4860.00  4.72030e-17
      4862.00  5.08037e-17
      4864.00  5.25227e-17
      4866.00  5.51275e-17
      4868.00  4.65736e-17
      4870.00  4.90089e-17
      4872.00  4.22446e-17
      4874.00  5.01055e-17
      4876.00  4.33588e-17
      4878.00  4.09341e-17
      4880.00  5.25963e-17
      4882.00  4.87883e-17
      4884.00  3.93629e-17
      4886.00  3.91702e-17
      4888.00  4.61028e-17
      4890.00  4.31106e-17
      4892.00  4.54416e-17
      4894.00  3.47426e-17
      4896.00  5.03799e-17
      4898.00  4.93974e-17
      4900.00  5.01711e-17
      4902.00  4.14312e-17
      4904.00  4.77181e-17
      4906.00  4.12491e-17
      4908.00  4.61539e-17
      4910.00  3.75728e-17
      4912.00  4.43708e-17
      4914.00  4.01382e-17
      4916.00  4.36811e-17
      4918.00  3.92595e-17
      4920.00  4.97651e-17
      4922.00  5.36960e-17
      4924.00  4.64033e-17
      4926.00  4.36795e-17
      4928.00  4.76157e-17
      4930.00  4.88218e-17
      4932.00  5.68868e-17
      4934.00  4.62032e-17
      4936.00  4.85717e-17
      4938.00  5.28591e-17
      4940.00  5.23931e-17
      4942.00  4.62563e-17
      4944.00  3.99116e-17
      4946.00  3.80053e-17
      4948.00  4.40248e-17
      4950.00  4.59827e-17
      4952.00  4.14457e-17
      4954.00  4.55825e-17
      4956.00  4.27583e-17
      4958.00  4.49884e-17
      4960.00  3.62929e-17
      4962.00  3.74954e-17
      4964.00  5.14132e-17
      4966.00  4.52732e-17
      4968.00  5.36418e-17
      4970.00  5.03899e-17
      4972.00  5.70517e-17
      4974.00  5.16417e-17
      4976.00  4.56275e-17
      4978.00  4.72334e-17
      4980.00  4.79992e-17
      4982.00  4.71766e-17
      4984.00  5.17965e-17
      4986.00  5.07156e-17
      4988.00  4.05424e-17
      4990.00  5.28198e-17
      4992.00  4.97820e-17
      4994.00  4.59493e-17
      4996.00  5.27508e-17
      4998.00  3.68338e-17
      5000.00  4.19895e-17
      5002.00  5.64455e-17
      5004.00  5.29099e-17
      5006.00  3.64392e-17
      5008.00  4.28158e-17
      5010.00  4.10246e-17
      5012.00  4.79416e-17
      5014.00  4.82564e-17
      5016.00  4.45073e-17
      5018.00  5.12069e-17
      5020.00  5.06365e-17
      5022.00  4.61809e-17
      5024.00  4.83190e-17
      5026.00  4.35288e-17
      5028.00  4.34777e-17
      5030.00  4.53843e-17
      5032.00  4.43413e-17
      5034.00  5.49695e-17
      5036.00  5.72917e-17
      5038.00  4.85046e-17
      5040.00  4.72692e-17
      5042.00  4.83394e-17
      5044.00  4.71231e-17
      5046.00  4.97254e-17
      5048.00  4.78965e-17
      5050.00  4.63840e-17
      5052.00  5.06208e-17
      5054.00  4.87207e-17
      5056.00  4.24896e-17
      5058.00  5.16053e-17
      5060.00  4.75536e-17
      5062.00  4.39836e-17
      5064.00  5.05294e-17
      5066.00  4.48724e-17
      5068.00  4.98091e-17
      5070.00  6.05482e-17
      5072.00  4.05522e-17
      5074.00  3.80705e-17
      5076.00  5.18104e-17
      5078.00  5.75285e-17
      5080.00  4.86588e-17
      5082.00  4.38575e-17
      5084.00  5.84900e-17
      5086.00  5.81107e-17
      5088.00  5.26675e-17
      5090.00  4.25951e-17
      5092.00  4.17739e-17
      5094.00  4.71328e-17
      5096.00  4.60844e-17
      5098.00  5.09319e-17
      5100.00  4.40160e-17
      5102.00  4.36051e-17
      5104.00  5.22640e-17
      5106.00  4.80347e-17
      5108.00  5.18264e-17
      5110.00  4.13253e-17
      5112.00  4.04510e-17
      5114.00  4.77974e-17
      5116.00  5.84274e-17
      5118.00  5.45852e-17
      5120.00  6.38184e-17
      5122.00  5.40664e-17
      5124.00  4.73280e-17
      5126.00  3.65196e-17
      5128.00  4.21685e-17
      5130.00  4.58025e-17
      5132.00  4.35905e-17
      5134.00  5.18396e-17
      5136.00  4.34616e-17
      5138.00  4.72029e-17
      5140.00  5.71356e-17
      5142.00  4.83518e-17
      5144.00  4.69409e-17
      5146.00  3.96063e-17
      5148.00  4.94410e-17
      5150.00  4.52646e-17
      5152.00  5.15573e-17
      5154.00  4.48741e-17
      5156.00  3.49868e-17
      5158.00  3.97771e-17
      5160.00  3.97975e-17
      5162.00  3.78638e-17
      5164.00  4.19717e-17
      5166.00  4.61753e-17
      5168.00  4.43946e-17
      5170.00  4.88261e-17
      5172.00  4.41883e-17
      5174.00  4.28676e-17
      5176.00  4.73419e-17
      5178.00  5.63801e-17
      5180.00  5.28095e-17
      5182.00  5.50412e-17
      5184.00  5.40516e-17
      5186.00  5.44862e-17
      5188.00  4.82269e-17
      5190.00  4.76866e-17
      5192.00  4.74777e-17
      5194.00  5.30775e-17
      5196.00  4.73433e-17
      5198.00  5.02807e-17
      5200.00  4.96058e-17
      5202.00  4.27707e-17
      5204.00  4.63181e-17
      5206.00  3.68647e-17
      5208.00  4.19459e-17
      5210.00  4.26736e-17
      5212.00  5.10618e-17
      5214.00  4.16477e-17
      5216.00  4.27558e-17
      5218.00  5.08480e-17
      5220.00  4.76316e-17
      5222.00  5.11796e-17
      5224.00  4.76926e-17
      5226.00  4.35274e-17
      5228.00  3.88912e-17
      5230.00  5.13957e-17
      5232.00  3.98649e-17
      5234.00  3.77662e-17
      5236.00  3.71546e-17
      5238.00  3.21159e-17
      5240.00  3.98696e-17
      5242.00  4.95685e-17
      5244.00  4.44294e-17
      5246.00  4.35187e-17
      5248.00  3.70625e-17
      5250.00  4.29721e-17
      5252.00  5.45353e-17
      5254.00  4.45376e-17
      5256.00  5.38019e-17
      5258.00  4.65531e-17
      5260.00  3.78962e-17
      5262.00  4.19095e-17
      5264.00  4.88904e-17
      5266.00  3.84601e-17
      5268.00  4.34947e-17
      5270.00  4.86393e-17
      5272.00  5.07343e-17
      5274.00  5.55604e-17
      5276.00  4.89535e-17
      5278.00  5.11328e-17
      5280.00  4.76159e-17
      5282.00  4.53551e-17
      5284.00  4.29619e-17
      5286.00  4.84373e-17
      5288.00  4.20055e-17
      5290.00  3.18708e-17
      5292.00  3.09837e-17
      5294.00  4.17308e-17
      5296.00  4.30251e-17
      5298.00  4.70363e-17
      5300.00  4.13516e-17
      5302.00  4.46368e-17
      5304.00  3.07146e-17
      5306.00  4.04049e-17
      5308.00  4.84436e-17
      5310.00  4.86877e-17
      5312.00  3.95736e-17
      5314.00  4.19354e-17
      5316.00  4.85663e-17
      5318.00  3.26852e-17
      5320.00  4.50148e-17
      5322.00  5.43171e-17
      5324.00  5.99335e-17
      5326.00  5.80621e-17
      5328.00  4.53959e-17
      5330.00  4.91480e-17
      5332.00  4.61526e-17
      5334.00  4.44193e-17
      5336.00  4.39915e-17
      5338.00  3.55748e-17
      5340.00  4.44541e-17
      5342.00  4.79415e-17
      5344.00  3.89838e-17
      5346.00  5.16018e-17
      5348.00  3.87814e-17
      5350.00  4.33378e-17
      5352.00  3.07087e-17
      5354.00  5.27438e-17
      5356.00  4.41086e-17
      5358.00  3.30312e-17
      5360.00  5.89450e-17
      5362.00  5.08520e-17
      5364.00  4.14330e-17
      5366.00  4.57779e-17
      5368.00  4.09812e-17
      5370.00  5.07338e-17
      5372.00  4.06474e-17
      5374.00  4.48183e-17
      5376.00  3.59815e-17
      5378.00  3.47520e-17
      5380.00  4.24617e-17
      5382.00  5.16522e-17
      5384.00  4.66394e-17
      5386.00  4.37648e-17
      5388.00  3.67339e-17
      5390.00  4.51683e-17
      5392.00  4.43663e-17
      5394.00  4.04483e-17
      5396.00  4.19553e-17
      5398.00  2.83791e-17
      5400.00  4.11618e-17
      5402.00  3.15965e-17
      5404.00  3.48458e-17
      5406.00  3.91911e-17
      5408.00  4.57596e-17
      5410.00  4.58877e-17
      5412.00  5.80040e-17
      5414.00  6.47900e-17
      5416.00  5.20985e-17
      5418.00  4.38767e-17
      5420.00  4.02890e-17
      5422.00  5.05874e-17
      5424.00  4.39286e-17
      5426.00  4.15699e-17
      5428.00  4.10169e-17
      5430.00  4.46461e-17
      5432.00  4.02401e-17
      5434.00  4.86145e-17
      5436.00  4.48254e-17
      5438.00  4.98091e-17
      5440.00  5.45731e-17
      5442.00  3.42055e-17
      5444.00  3.70528e-17
      5446.00  3.81814e-17
      5448.00  4.44490e-17
      5450.00  4.23009e-17
      5452.00  4.19727e-17
      5454.00  4.68212e-17
      5456.00  4.59135e-17
      5458.00  5.16767e-17
      5460.00  5.02492e-17
      5462.00  3.06830e-17
      5464.00  3.13218e-17
      5466.00  3.45105e-17
      5468.00  4.04763e-17
      5470.00  5.11864e-17
      5472.00  3.86689e-17
      5474.00  3.70790e-17
      5476.00  3.94984e-17
      5478.00  4.05880e-17
      5480.00  4.23214e-17
      5482.00  4.26237e-17
      5484.00  5.92298e-17
      5486.00  5.40016e-17
      5488.00  5.31089e-17
      5490.00  4.69367e-17
      5492.00  4.45254e-17
      5494.00  3.78810e-17
      5496.00  3.92953e-17
      5498.00  4.03515e-17
      5500.00  4.08165e-17
      5502.00  4.60920e-17
      5504.00  4.94233e-17
      5506.00  4.81137e-17
      5508.00  4.35991e-17
      5510.00  5.67459e-17
      5512.00  5.05233e-17
      5514.00  4.77569e-17
      5516.00  4.92848e-17
      5518.00  4.60910e-17
      5520.00  3.81917e-17
      5522.00  4.07123e-17
      5524.00  4.34036e-17
      5526.00  3.88262e-17
      5528.00  3.75611e-17
      5530.00  3.88091e-17
      5532.00  3.94736e-17
      5534.00  4.41075e-17
      5536.00  3.79521e-17
      5538.00  4.50709e-17
      5540.00  4.33355e-17
      5542.00  4.46537e-17
      5544.00  4.30118e-17
      5546.00  4.27713e-17
      5548.00  3.68623e-17
      5550.00  4.83638e-17
      5552.00  5.11289e-17
      5554.00  4.42461e-17
      5556.00  4.63101e-17
      5558.00  4.86130e-17
      5560.00  5.17420e-17
      5562.00  4.24786e-17
      5564.00  3.67180e-17
      5566.00  3.67594e-17
      5568.00  4.33025e-17
      5570.00  4.12974e-17
      5572.00  3.78558e-17
      5574.00  3.15415e-17
      5576.00  3.73091e-17
      5578.00  3.24874e-17
      5580.00  3.06610e-17
      5582.00  3.35641e-17
      5584.00  3.99413e-17
      5586.00  3.59760e-17
      5588.00  4.18410e-17
      5590.00  3.94948e-17
      5592.00  3.83377e-17
      5594.00  4.34315e-17
      5596.00  4.50689e-17
      5598.00  4.45306e-17
      5600.00  4.79707e-17
      5602.00  4.85239e-17
      5604.00  4.48917e-17
      5606.00  4.29917e-17
      5608.00  4.35148e-17
      5610.00  4.20332e-17
      5612.00  4.23051e-17
      5614.00  4.58425e-17
      5616.00  5.07860e-17
      5618.00  4.71060e-17
      5620.00  4.92398e-17
      5622.00  4.68830e-17
      5624.00  4.59925e-17
      5626.00  4.99674e-17
      5628.00  4.64565e-17
      5630.00  4.28247e-17
      5632.00  4.81057e-17
      5634.00  4.25003e-17
      5636.00  4.69289e-17
      5638.00  4.85946e-17
      5640.00  5.08479e-17
      5642.00  4.93293e-17
      5644.00  4.12803e-17
      5646.00  4.56800e-17
      5648.00  5.03873e-17
      5650.00  4.77444e-17
      5652.00  4.59656e-17
      5654.00  4.67644e-17
      5656.00  4.55356e-17
      5658.00  4.76621e-17
      5660.00  4.78242e-17
      5662.00  5.15873e-17
      5664.00  4.16163e-17
      5666.00  4.92953e-17
      5668.00  4.16947e-17
      5670.00  4.87038e-17
      5672.00  4.62546e-17
      5674.00  4.65445e-17
      5676.00  4.50668e-17
      5678.00  4.33432e-17
      5680.00  4.76451e-17
      5682.00  4.56215e-17
      5684.00  4.94039e-17
      5686.00  4.50425e-17
      5688.00  5.63173e-17
      5690.00  4.82810e-17
      5692.00  4.66162e-17
      5694.00  5.47667e-17
      5696.00  5.02941e-17
      5698.00  4.89696e-17
      5700.00  5.29890e-17
      5702.00  5.29355e-17
      5704.00  4.59632e-17
      5706.00  4.87220e-17
      5708.00  4.64668e-17
      5710.00  5.14632e-17
      5712.00  4.90105e-17
      5714.00  4.21542e-17
      5716.00  4.62069e-17
      5718.00  5.02688e-17
      5720.00  4.79120e-17
      5722.00  4.83924e-17
      5724.00  4.91453e-17
      5726.00  4.85829e-17
      5728.00  5.18131e-17
      5730.00  5.46027e-17
      5732.00  5.60484e-17
      5734.00  4.89192e-17
      5736.00  5.11649e-17
      5738.00  4.55600e-17
      5740.00  4.40356e-17
      5742.00  3.97378e-17
      5744.00  3.89435e-17
      5746.00  4.87013e-17
      5748.00  4.72530e-17
      5750.00  4.66610e-17
      5752.00  4.23249e-17
      5754.00  5.15874e-17
      5756.00  4.99484e-17
      5758.00  4.94483e-17
      5760.00  4.73534e-17
      5762.00  4.91709e-17
      5764.00  5.01413e-17
      5766.00  4.94633e-17
      5768.00  5.66037e-17
      5770.00  5.65833e-17
      5772.00  5.59107e-17
      5774.00  5.58864e-17
      5776.00  5.74218e-17
      5778.00  5.32961e-17
      5780.00  5.42246e-17
      5782.00  4.32328e-17
      5784.00  4.23915e-17
      5786.00  5.22958e-17
      5788.00  5.25788e-17
      5790.00  5.17063e-17
      5792.00  5.23291e-17
      5794.00  5.42874e-17
      5796.00  4.92071e-17
      5798.00  5.32451e-17
      5800.00  5.29435e-17
      5802.00  5.70497e-17
      5804.00  5.12765e-17
      5806.00  5.13243e-17
      5808.00  5.59628e-17
      5810.00  5.48545e-17
      5812.00  5.25212e-17
      5814.00  5.19774e-17
      5816.00  5.27531e-17
      5818.00  5.63362e-17
      5820.00  5.65041e-17
      5822.00  5.01148e-17
      5824.00  4.67143e-17
      5826.00  4.87250e-17
      5828.00  5.54422e-17
      5830.00  5.71900e-17
      5832.00  4.87530e-17
      5834.00  4.93950e-17
      5836.00  6.00554e-17
      5838.00  5.86971e-17
      5840.00  5.44151e-17
      5842.00  5.73205e-17
      5844.00  5.39952e-17
      5846.00  5.60186e-17
      5848.00  5.56909e-17
      5850.00  5.10958e-17
      5852.00  5.27141e-17
      5854.00  5.19256e-17
      5856.00  4.66050e-17
      5858.00  5.81748e-17
      5860.00  5.30261e-17
      5862.00  5.07464e-17
      5864.00  5.49484e-17
      5866.00  6.07405e-17
      5868.00  5.54857e-17
      5870.00  4.98965e-17
      5872.00  5.02323e-17
      5874.00  4.78417e-17
      5876.00  5.21258e-17
      5878.00  5.34480e-17
      5880.00  5.91154e-17
      5882.00  6.51856e-17
      5884.00  6.44702e-17
      5886.00  6.16759e-17
      5888.00  5.21098e-17
      5890.00  5.64545e-17
      5892.00  4.66733e-17
      5894.00  5.09918e-17
      5896.00  4.97805e-17
      5898.00  4.08642e-17
      5900.00  4.26857e-17
      5902.00  5.43074e-17
      5904.00  5.01173e-17
      5906.00  5.26798e-17
      5908.00  5.28196e-17
      5910.00  5.21055e-17
      5912.00  4.90863e-17
      5914.00  4.67226e-17
      5916.00  4.88947e-17
      5918.00  5.80686e-17
      5920.00  5.56544e-17
      5922.00  5.84701e-17
      5924.00  5.29711e-17
      5926.00  5.94919e-17
      5928.00  6.17052e-17
      5930.00  5.18164e-17
      5932.00  4.63832e-17
      5934.00  4.76284e-17
      5936.00  5.52045e-17
      5938.00  5.87109e-17
      5940.00  5.38414e-17
      5942.00  5.24694e-17
      5944.00  5.55905e-17
      5946.00  5.44055e-17
      5948.00  5.33564e-17
      5950.00  5.54952e-17
      5952.00  5.40542e-17
      5954.00  5.53971e-17
      5956.00  5.79794e-17
      5958.00  5.20571e-17
      5960.00  5.73993e-17
      5962.00  5.48926e-17
      5964.00  5.85118e-17
      5966.00  5.94366e-17
      5968.00  5.84952e-17
      5970.00  5.91754e-17
      5972.00  5.26794e-17
      5974.00  5.90225e-17
      5976.00  5.74291e-17
      5978.00  5.80572e-17
      5980.00  5.70639e-17
      5982.00  5.44095e-17
      5984.00  5.57109e-17
      5986.00  6.29797e-17
      5988.00  6.56552e-17
      5990.00  6.13486e-17
      5992.00  5.40780e-17
      5994.00  5.76868e-17
      5996.00  5.33898e-17
      5998.00  5.28808e-17
      6000.00  5.57590e-17
      6002.00  5.72248e-17
      6004.00  5.61045e-17
      6006.00  5.88509e-17
      6008.00  5.61052e-17
      6010.00  5.57318e-17
      6012.00  5.64988e-17
      6014.00  5.75192e-17
      6016.00  4.99904e-17
      6018.00  4.60146e-17
      6020.00  5.50305e-17
      6022.00  5.50332e-17
      6024.00  5.79315e-17
      6026.00  5.73617e-17
      6028.00  5.14253e-17
      6030.00  4.97375e-17
      6032.00  5.04358e-17
      6034.00  4.74763e-17
      6036.00  5.28277e-17
      6038.00  5.33525e-17
      6040.00  5.14217e-17
      6042.00  6.33878e-17
      6044.00  6.01725e-17
      6046.00  5.49454e-17
      6048.00  5.59964e-17
      6050.00  5.86011e-17
      6052.00  5.64222e-17
      6054.00  5.13573e-17
      6056.00  5.48288e-17
      6058.00  5.23067e-17
      6060.00  5.45533e-17
      6062.00  5.44000e-17
      6064.00  5.29967e-17
      6066.00  5.36717e-17
      6068.00  5.05474e-17
      6070.00  5.20843e-17
      6072.00  5.02428e-17
      6074.00  5.36158e-17
      6076.00  5.63165e-17
      6078.00  4.81398e-17
      6080.00  4.48855e-17
      6082.00  5.27740e-17
      6084.00  5.03501e-17
      6086.00  5.57951e-17
      6088.00  5.62606e-17
      6090.00  5.04225e-17
      6092.00  5.41344e-17
      6094.00  4.83425e-17
      6096.00  5.73070e-17
      6098.00  5.22973e-17
      6100.00  5.42389e-17
      6102.00  5.27850e-17
      6104.00  5.58984e-17
      6106.00  4.84379e-17
      6108.00  4.72109e-17
      6110.00  4.33201e-17
      6112.00  5.15135e-17
      6114.00  5.10848e-17
      6116.00  5.45717e-17
      6118.00  5.28916e-17
      6120.00  5.13092e-17
      6122.00  5.54910e-17
      6124.00  5.25835e-17
      6126.00  5.46019e-17
      6128.00  5.32494e-17
      6130.00  5.44255e-17
      6132.00  5.35233e-17
      6134.00  5.53304e-17
      6136.00  5.16518e-17
      6138.00  4.95983e-17
      6140.00  4.99317e-17
      6142.00  5.43503e-17
      6144.00  5.45719e-17
      6146.00  5.36170e-17
      6148.00  4.98636e-17
      6150.00  4.50081e-17
      6152.00  5.20869e-17
      6154.00  5.55493e-17
      6156.00  5.10646e-17
      6158.00  5.24551e-17
      6160.00  5.50427e-17
      6162.00  5.24152e-17
      6164.00  5.39849e-17
      6166.00  5.48914e-17
      6168.00  5.29904e-17
      6170.00  5.18259e-17
      6172.00  4.95774e-17
      6174.00  5.10012e-17
      6176.00  5.31280e-17
      6178.00  5.58461e-17
      6180.00  5.53068e-17
      6182.00  5.16216e-17
      6184.00  5.53488e-17
      6186.00  5.64013e-17
      6188.00  5.20852e-17
      6190.00  5.38548e-17
      6192.00  5.14968e-17
      6194.00  5.21055e-17
      6196.00  4.83068e-17
      6198.00  5.21732e-17
      6200.00  5.21505e-17
      6202.00  5.51923e-17
      6204.00  5.20989e-17
      6206.00  5.05459e-17
      6208.00  5.58112e-17
      6210.00  5.48758e-17
      6212.00  5.44712e-17
      6214.00  5.12565e-17
      6216.00  5.33715e-17
      6218.00  4.81922e-17
      6220.00  4.72529e-17
      6222.00  5.02105e-17
      6224.00  4.85703e-17
      6226.00  4.88399e-17
      6228.00  5.35352e-17
      6230.00  5.62231e-17
      6232.00  5.18960e-17
      6234.00  5.10069e-17
      6236.00  5.35639e-17
      6238.00  5.30276e-17
      6240.00  5.28498e-17
      6242.00  4.84501e-17
      6244.00  5.61677e-17
      6246.00  5.65076e-17
      6248.00  5.64602e-17
      6250.00  5.81989e-17
      6252.00  5.67112e-17
      6254.00  5.49454e-17
      6256.00  5.87178e-17
      6258.00  5.40884e-17
      6260.00  5.24492e-17
      6262.00  4.95830e-17
      6264.00  5.64314e-17
      6266.00  5.71980e-17
      6268.00  5.29211e-17
      6270.00  5.16621e-17
      6272.00  5.25597e-17
      6274.00  5.56197e-17
      6276.00  6.20322e-17
      6278.00  6.09185e-17
      6280.00  5.52320e-17
      6282.00  5.14955e-17
      6284.00  5.41658e-17
      6286.00  5.56632e-17
      6288.00  5.38818e-17
      6290.00  5.10147e-17
      6292.00  5.45453e-17
      6294.00  6.53139e-17
      6296.00  6.93397e-17
      6298.00  5.94119e-17
      6300.00  6.08246e-17
      6302.00  4.79478e-17
      6304.00  3.98233e-17
      6306.00  5.03030e-17
      6308.00  5.47514e-17
      6310.00  4.82619e-17
      6312.00  5.10239e-17
      6314.00  5.75651e-17
      6316.00  5.18104e-17
      6318.00  5.02930e-17
      6320.00  5.10618e-17
      6322.00  5.15033e-17
      6324.00  5.48208e-17
      6326.00  5.12286e-17
      6328.00  5.18308e-17
      6330.00  5.02521e-17
      6332.00  4.41665e-17
      6334.00  4.95564e-17
      6336.00  5.11731e-17
      6338.00  5.33866e-17
      6340.00  4.97522e-17
      6342.00  4.71254e-17
      6344.00  4.80101e-17
      6346.00  4.53012e-17
      6348.00  4.70489e-17
      6350.00  4.65884e-17
      6352.00  4.24510e-17
      6354.00  4.79809e-17
      6356.00  4.91432e-17
      6358.00  4.98936e-17
      6360.00  5.72605e-17
      6362.00  6.12702e-17
      6364.00  5.25618e-17
      6366.00  5.18631e-17
      6368.00  5.35310e-17
      6370.00  5.55478e-17
      6372.00  5.26385e-17
      6374.00  5.25307e-17
      6376.00  4.77545e-17
      6378.00  5.23546e-17
      6380.00  5.21014e-17
      6382.00  4.94846e-17
      6384.00  4.84302e-17
      6386.00  5.40059e-17
      6388.00  4.97920e-17
      6390.00  5.40718e-17
      6392.00  5.64484e-17
      6394.00  5.85847e-17
      6396.00  5.15275e-17
      6398.00  5.15194e-17
      6400.00  5.57342e-17
      6402.00  5.18075e-17
      6404.00  4.87956e-17
      6406.00  5.42392e-17
      6408.00  5.25224e-17
      6410.00  4.78309e-17
      6412.00  4.97834e-17
      6414.00  5.31522e-17
      6416.00  4.99617e-17
      6418.00  5.08923e-17
      6420.00  4.90357e-17
      6422.00  5.44508e-17
      6424.00  5.14025e-17
      6426.00  5.09413e-17
      6428.00  5.26735e-17
      6430.00  5.01629e-17
      6432.00  5.37817e-17
      6434.00  5.11173e-17
      6436.00  4.98329e-17
      6438.00  4.78524e-17
      6440.00  5.36086e-17
      6442.00  5.35996e-17
      6444.00  4.99913e-17
      6446.00  5.06660e-17
      6448.00  4.95049e-17
      6450.00  4.86930e-17
      6452.00  5.38851e-17
      6454.00  5.33216e-17
      6456.00  4.92133e-17
      6458.00  4.87418e-17
      6460.00  5.48016e-17
      6462.00  5.45805e-17
      6464.00  5.41442e-17
      6466.00  5.00449e-17
      6468.00  4.95125e-17
      6470.00  5.18863e-17
      6472.00  4.96785e-17
      6474.00  4.69855e-17
      6476.00  4.93041e-17
      6478.00  4.89411e-17
      6480.00  5.47043e-17
      6482.00  5.25084e-17
      6484.00  4.71028e-17
      6486.00  4.91082e-17
      6488.00  5.29437e-17
      6490.00  5.40835e-17
      6492.00  5.46796e-17
      6494.00  4.93815e-17
      6496.00  5.05061e-17
      6498.00  5.48903e-17
      6500.00  5.73652e-17
      6502.00  5.44849e-17
      6504.00  5.34569e-17
      6506.00  5.39880e-17
      6508.00  5.15962e-17
      6510.00  5.30384e-17
      6512.00  5.26437e-17
      6514.00  5.11900e-17
      6516.00  5.49945e-17
      6518.00  5.22794e-17
      6520.00  5.31275e-17
      6522.00  5.39935e-17
      6524.00  4.97752e-17
      6526.00  5.13620e-17
      6528.00  5.53866e-17
      6530.00  5.52812e-17
      6532.00  5.09872e-17
      6534.00  5.18507e-17
      6536.00  5.10772e-17
      6538.00  4.99272e-17
      6540.00  5.06148e-17
      6542.00  5.91350e-17
      6544.00  5.53357e-17
      6546.00  5.27103e-17
      6548.00  5.39485e-17
      6550.00  5.49151e-17
      6552.00  5.24280e-17
      6554.00  5.22794e-17
      6556.00  4.72070e-17
      6558.00  4.62899e-17
      6560.00  4.93035e-17
      6562.00  5.46704e-17
      6564.00  4.98952e-17
      6566.00  5.21134e-17
      6568.00  5.31052e-17
      6570.00  5.05067e-17
      6572.00  5.27107e-17
      6574.00  5.48677e-17
      6576.00  5.25021e-17
      6578.00  5.00703e-17
      6580.00  5.52321e-17
      6582.00  4.94444e-17
      6584.00  5.06229e-17
      6586.00  5.31754e-17
      6588.00  5.14280e-17
      6590.00  5.19186e-17
      6592.00  4.98094e-17
      6594.00  4.24214e-17
      6596.00  4.54356e-17
      6598.00  4.78052e-17
      6600.00  4.81584e-17
      6602.00  4.98305e-17
      6604.00  5.26398e-17
      6606.00  5.32589e-17
      6608.00  4.92501e-17
      6610.00  5.04857e-17
      6612.00  5.19275e-17
      6614.00  4.72069e-17
      6616.00  5.24518e-17
      6618.00  4.90322e-17
      6620.00  4.91575e-17
      6622.00  4.75552e-17
      6624.00  5.07384e-17
      6626.00  5.20484e-17
      6628.00  5.00455e-17
      6630.00  4.94350e-17
      6632.00  4.87682e-17
      6634.00  4.26699e-17
      6636.00  4.39382e-17
      6638.00  4.39071e-17
      6640.00  4.60305e-17
      6642.00  4.57325e-17
      6644.00  4.60684e-17
      6646.00  4.73258e-17
      6648.00  4.73304e-17
      6650.00  4.43131e-17
      6652.00  4.99349e-17
      6654.00  4.80779e-17
      6656.00  4.85750e-17
      6658.00  4.36364e-17
      6660.00  4.47985e-17
      6662.00  4.93750e-17
      6664.00  4.95508e-17
      6666.00  4.87294e-17
      6668.00  4.80495e-17
      6670.00  4.49547e-17
      6672.00  4.65712e-17
      6674.00  4.96929e-17
      6676.00  4.85532e-17
      6678.00  4.44340e-17
      6680.00  4.45057e-17
      6682.00  4.65888e-17
      6684.00  4.78302e-17
      6686.00  5.07426e-17
      6688.00  5.16051e-17
      6690.00  5.33969e-17
      6692.00  4.99163e-17
      6694.00  4.47125e-17
      6696.00  4.59470e-17
      6698.00  4.72575e-17
      6700.00  4.71877e-17
      6702.00  4.48012e-17
      6704.00  4.46629e-17
      6706.00  4.68389e-17
      6708.00  4.48174e-17
      6710.00  5.08439e-17
      6712.00  4.59816e-17
      6714.00  4.60702e-17
      6716.00  4.83802e-17
      6718.00  4.85442e-17
      6720.00  4.98038e-17
      6722.00  4.87197e-17
      6724.00  4.61649e-17
      6726.00  4.44216e-17
      6728.00  4.58388e-17
      6730.00  4.72840e-17
      6732.00  4.43476e-17
      6734.00  4.69673e-17
      6736.00  4.87377e-17
      6738.00  5.07551e-17
      6740.00  5.06668e-17
      6742.00  5.14764e-17
      6744.00  4.34208e-17
      6746.00  4.77762e-17
      6748.00  4.65287e-17
      6750.00  4.86893e-17
      6752.00  4.72397e-17
      6754.00  4.94014e-17
      6756.00  4.93829e-17
      6758.00  4.96033e-17
      6760.00  4.90103e-17
      6762.00  4.29147e-17
      6764.00  4.97593e-17
      6766.00  5.07064e-17
      6768.00  5.20798e-17
      6770.00  5.08318e-17
      6772.00  5.02822e-17
      6774.00  5.06212e-17
      6776.00  5.04031e-17
      6778.00  4.89740e-17
      6780.00  5.21568e-17
      6782.00  5.17092e-17
      6784.00  5.10530e-17
      6786.00  5.18933e-17
      6788.00  4.95567e-17
      6790.00  5.37714e-17
      6792.00  5.27417e-17
      6794.00  5.26030e-17
      6796.00  5.21535e-17
      6798.00  5.05756e-17
      6800.00  4.87265e-17
      6802.00  4.98698e-17
      6804.00  4.98453e-17
      6806.00  4.86907e-17
      6808.00  4.80301e-17
      6810.00  4.92182e-17
      6812.00  5.24116e-17
      6814.00  4.89422e-17
      6816.00  5.11785e-17
      6818.00  5.31594e-17
      6820.00  4.87825e-17
      6822.00  4.83553e-17
      6824.00  5.11599e-17
      6826.00  5.35834e-17
      6828.00  5.25717e-17
      6830.00  4.63535e-17
      6832.00  4.84405e-17
      6834.00  4.80145e-17
      6836.00  4.67386e-17
      6838.00  4.88137e-17
      6840.00  5.07356e-17
      6842.00  5.30721e-17
      6844.00  5.48740e-17
      6846.00  5.06352e-17
      6848.00  4.89561e-17
      6850.00  4.96136e-17
      6852.00  4.85894e-17
      6854.00  4.32506e-17
      6856.00  4.81813e-17
      6858.00  4.89476e-17
      6860.00  5.15487e-17
      6862.00  5.16064e-17
      6864.00  4.98695e-17
      6866.00  4.79366e-17
      6868.00  4.90681e-17
      6870.00  4.48893e-17
      6872.00  5.10914e-17
      6874.00  5.40726e-17
      6876.00  5.31694e-17
      6878.00  5.27191e-17
      6880.00  5.52356e-17
      6882.00  5.33709e-17
      6884.00  5.27618e-17
      6886.00  5.24346e-17
      6888.00  5.03715e-17
      6890.00  4.92393e-17
      6892.00  4.85529e-17
      6894.00  4.68953e-17
      6896.00  4.96264e-17
      6898.00  5.17831e-17
      6900.00  5.10867e-17
      6902.00  5.36782e-17
      6904.00  5.12856e-17
      6906.00  5.15434e-17
      6908.00  4.76845e-17
      6910.00  4.97558e-17
      6912.00  5.11930e-17
      6914.00  5.23835e-17
      6916.00  5.21004e-17
      6918.00  5.44549e-17
      6920.00  5.11215e-17
      6922.00  4.79976e-17
      6924.00  4.97632e-17
      6926.00  5.12393e-17
      6928.00  5.35757e-17
      6930.00  5.70114e-17
      6932.00  5.46587e-17
      6934.00  5.30491e-17
      6936.00  5.51528e-17
      6938.00  5.12518e-17
      6940.00  5.17536e-17
      6942.00  5.14667e-17
      6944.00  5.74888e-17
      6946.00  5.56551e-17
      6948.00  5.05922e-17
      6950.00  5.14299e-17
      6952.00  5.54733e-17
      6954.00  5.30241e-17
      6956.00  5.41359e-17
      6958.00  5.22699e-17
      6960.00  5.43585e-17
      6962.00  5.12130e-17
      6964.00  5.35562e-17
      6966.00  5.56165e-17
      6968.00  4.88941e-17
      6970.00  5.36563e-17
      6972.00  5.15425e-17
      6974.00  5.19968e-17
      6976.00  5.72752e-17
      6978.00  6.01496e-17
      6980.00  5.43260e-17
      6982.00  5.09850e-17
      6984.00  5.25850e-17
      6986.00  5.43996e-17
      6988.00  5.35841e-17
      6990.00  5.70959e-17
      6992.00  5.47133e-17
      6994.00  4.91916e-17
      6996.00  5.34406e-17
      6998.00  5.20222e-17
      7000.00  5.04858e-17
      7002.00  5.12389e-17
      7004.00  5.19644e-17
      7006.00  4.84700e-17
      7008.00  5.19319e-17
      7010.00  5.66938e-17
      7012.00  5.57762e-17
      7014.00  5.36986e-17
      7016.00  5.61258e-17
      7018.00  5.51384e-17
      7020.00  5.82800e-17
      7022.00  5.31513e-17
      7024.00  5.12199e-17
      7026.00  5.32677e-17
      7028.00  5.42984e-17
      7030.00  5.56393e-17
      7032.00  5.07603e-17
      7034.00  5.00463e-17
      7036.00  5.77990e-17
      7038.00  5.83708e-17
      7040.00  5.62187e-17
      7042.00  5.56600e-17
      7044.00  5.74517e-17
      7046.00  5.84188e-17
      7048.00  5.64533e-17
      7050.00  5.27794e-17
      7052.00  5.24531e-17
      7054.00  5.76754e-17
      7056.00  5.31752e-17
      7058.00  5.60537e-17
      7060.00  5.24646e-17
      7062.00  5.14139e-17
      7064.00  5.03383e-17
      7066.00  4.84868e-17
      7068.00  4.98528e-17
      7070.00  4.44727e-17
      7072.00  4.37973e-17
      7074.00  4.32173e-17
      7076.00  4.54894e-17
      7078.00  4.90071e-17
      7080.00  4.66180e-17
      7082.00  5.07860e-17
      7084.00  5.23900e-17
      7086.00  5.44742e-17
      7088.00  5.11760e-17
      7090.00  5.31151e-17
      7092.00  5.51331e-17
      7094.00  5.61754e-17
      7096.00  5.65246e-17
      7098.00  5.51654e-17
      7100.00  4.95794e-17
      7102.00  5.39505e-17
      7104.00  5.47718e-17
      7106.00  5.56348e-17
      7108.00  5.40968e-17
      7110.00  5.10004e-17
      7112.00  5.39905e-17
      7114.00  5.48440e-17
      7116.00  5.55034e-17
      7118.00  5.27536e-17
      7120.00  5.18503e-17
      7122.00  5.27855e-17
      7124.00  5.84468e-17
      7126.00  5.90068e-17
      7128.00  5.41041e-17
      7130.00  5.14485e-17
      7132.00  5.42125e-17
      7134.00  5.96599e-17
      7136.00  6.94485e-17
      7138.00  5.61126e-17
      7140.00  5.68157e-17
      7142.00  4.90703e-17
      7144.00  4.59469e-17
      7146.00  4.90538e-17
      7148.00  5.07154e-17
      7150.00  5.29540e-17
      7152.00  5.30590e-17
      7154.00  4.96775e-17
      7156.00  5.16615e-17
      7158.00  5.10209e-17
      7160.00  4.60244e-17
      7162.00  5.17328e-17
      7164.00  4.83087e-17
      7166.00  4.94682e-17
      7168.00  5.04032e-17
      7170.00  5.05527e-17
      7172.00  4.73341e-17
      7174.00  4.91609e-17
      7176.00  5.02339e-17
      7178.00  5.26850e-17
      7180.00  4.56701e-17
      7182.00  4.63494e-17
      7184.00  5.03074e-17
      7186.00  5.19557e-17
      7188.00  5.01783e-17
      7190.00  4.95966e-17
      7192.00  4.93988e-17
      7194.00  5.11041e-17
      7196.00  4.64977e-17
      7198.00  4.79672e-17
      7200.00  5.44070e-17
      7202.00  5.38749e-17
      7204.00  5.22231e-17
      7206.00  4.82714e-17
      7208.00  4.86600e-17
      7210.00  5.05390e-17
      7212.00  4.91008e-17
      7214.00  5.11778e-17
      7216.00  5.02593e-17
      7218.00  5.05253e-17
      7220.00  4.84175e-17
      7222.00  4.79239e-17
      7224.00  4.87583e-17
      7226.00  4.89407e-17
      7228.00  4.84347e-17
      7230.00  4.67343e-17
      7232.00  4.80658e-17
      7234.00  4.80955e-17
      7236.00  5.19279e-17
      7238.00  5.16117e-17
      7240.00  4.90701e-17
      7242.00  4.88678e-17
      7244.00  4.53758e-17
      7246.00  4.86961e-17
      7248.00  5.12808e-17
      7250.00  4.91346e-17
      7252.00  4.97523e-17
      7254.00  5.03728e-17
      7256.00  5.04673e-17
      7258.00  4.84909e-17
      7260.00  4.72285e-17
      7262.00  4.94498e-17
      7264.00  4.99754e-17
      7266.00  5.43211e-17
      7268.00  4.95893e-17
      7270.00  5.02358e-17
      7272.00  5.34215e-17
      7274.00  5.52670e-17
      7276.00  4.51663e-17
      7278.00  4.75584e-17
      7280.00  5.06964e-17
      7282.00  4.89605e-17
      7284.00  4.90772e-17
      7286.00  4.32582e-17
      7288.00  4.93645e-17
      7290.00  4.55441e-17
      7292.00  4.28863e-17
      7294.00  4.78599e-17
      7296.00  4.71898e-17
      7298.00  5.16200e-17
      7300.00  5.31713e-17
      7302.00  4.88287e-17
      7304.00  4.65908e-17
      7306.00  4.89566e-17
      7308.00  4.70519e-17
      7310.00  4.76463e-17
      7312.00  4.95682e-17
      7314.00  4.86614e-17
      7316.00  4.75169e-17
      7318.00  4.84584e-17
      7320.00  5.10178e-17
      7322.00  4.79914e-17
      7324.00  4.81242e-17
      7326.00  5.04126e-17
      7328.00  5.06634e-17
      7330.00  5.18396e-17
      7332.00  5.13103e-17
      7334.00  4.87835e-17
      7336.00  5.15329e-17
      7338.00  4.79834e-17
      7340.00  4.71979e-17
      7342.00  4.92150e-17
      7344.00  4.43633e-17
      7346.00  4.45147e-17
      7348.00  4.89869e-17
      7350.00  5.06443e-17
      7352.00  5.19596e-17
      7354.00  5.11652e-17
      7356.00  5.04752e-17
      7358.00  5.11518e-17
      7360.00  4.86037e-17
      7362.00  4.79172e-17
      7364.00  4.93559e-17
      7366.00  4.77009e-17
      7368.00  4.76590e-17
      7370.00  4.69459e-17
      7372.00  4.49642e-17
      7374.00  4.67907e-17
      7376.00  5.19034e-17
      7378.00  5.33093e-17
      7380.00  5.18152e-17
      7382.00  4.86234e-17
      7384.00  4.89586e-17
      7386.00  4.58599e-17
      7388.00  5.05324e-17
      7390.00  5.22719e-17
      7392.00  5.35384e-17
      7394.00  4.99432e-17
      7396.00  5.08444e-17
      7398.00  5.04876e-17
      7400.00  5.13964e-17
      7402.00  4.90521e-17
      7404.00  5.03197e-17
      7406.00  5.27009e-17
      7408.00  4.64124e-17
      7410.00  4.82159e-17
      7412.00  4.84496e-17
      7414.00  4.70527e-17
      7416.00  4.50478e-17
      7418.00  4.99780e-17
      7420.00  5.37454e-17
      7422.00  5.30969e-17
      7424.00  5.16635e-17
      7426.00  5.29708e-17
      7428.00  5.11112e-17
      7430.00  4.92338e-17
      7432.00  4.97782e-17
      7434.00  4.67205e-17
      7436.00  4.60534e-17
      7438.00  4.91680e-17
      7440.00  5.47182e-17
      7442.00  5.53773e-17
      7444.00  5.19109e-17
      7446.00  5.01379e-17
      7448.00  4.96537e-17
      7450.00  4.77768e-17
      7452.00  4.66139e-17
      7454.00  4.50357e-17
      7456.00  5.16759e-17
      7458.00  5.05284e-17
      7460.00  4.97603e-17
      7462.00  4.74422e-17
      7464.00  5.01603e-17
      7466.00  4.46924e-17
      7468.00  4.67241e-17
      7470.00  4.90831e-17
      7472.00  5.14761e-17
      7474.00  5.01406e-17
      7476.00  4.80876e-17
      7478.00  5.15665e-17
      7480.00  5.29228e-17
      7482.00  5.14973e-17
      7484.00  5.08280e-17
      7486.00  4.68796e-17
      7488.00  4.68620e-17
      7490.00  4.96965e-17
      7492.00  5.41249e-17
      7494.00  5.21196e-17
      7496.00  5.42423e-17
      7498.00  4.75084e-17
      7500.00  4.46314e-17
      7502.00  4.76690e-17
      7504.00  4.77551e-17
      7506.00  4.68074e-17
      7508.00  5.02185e-17
      7510.00  4.89348e-17
      7512.00  4.53642e-17
      7514.00  5.13538e-17
      7516.00  5.23535e-17
      7518.00  5.03213e-17
      7520.00  4.88100e-17
      7522.00  5.37820e-17
      7524.00  5.40962e-17
      7526.00  4.73371e-17
      7528.00  4.80390e-17
      7530.00  5.32904e-17
      7532.00  5.55265e-17
      7534.00  4.68071e-17
      7536.00  4.68400e-17
      7538.00  5.17698e-17
      7540.00  5.25617e-17
      7542.00  5.16112e-17
      7544.00  4.75834e-17
      7546.00  4.93415e-17
      7548.00  4.87286e-17
      7550.00  4.89119e-17
      7552.00  5.04680e-17
      7554.00  5.06033e-17
      7556.00  4.81144e-17
      7558.00  4.76137e-17
      7560.00  4.78812e-17
      7562.00  4.50102e-17
      7564.00  4.83549e-17
      7566.00  4.79458e-17
      7568.00  4.97188e-17
      7570.00  5.00360e-17
      7572.00  4.48335e-17
      7574.00  4.72550e-17
      7576.00  4.93520e-17
      7578.00  4.77997e-17
      7580.00  4.68022e-17
      7582.00  4.84685e-17
      7584.00  4.63240e-17
      7586.00  4.84974e-17
      7588.00  4.87342e-17
      7590.00  4.90294e-17
      7592.00  4.89798e-17
      7594.00  4.68418e-17
      7596.00  4.95022e-17
      7598.00  4.67364e-17
      7600.00  4.89665e-17
      7602.00  5.09115e-17
      7604.00  3.47744e-17
      7606.00  4.77712e-17
      7608.00  4.63407e-17
      7610.00  5.11612e-17
      7612.00  3.70453e-17
      7614.00  3.96948e-17
      7616.00  4.53200e-17
      7618.00  4.50182e-17
      7620.00  4.33705e-17
      7622.00  4.73875e-17
      7624.00  4.54186e-17
      7626.00  4.54452e-17
      7628.00  4.85664e-17
      7630.00  4.71673e-17
      7632.00  4.68845e-17
      7634.00  4.13703e-17
      7636.00  4.70891e-17
      7638.00  4.98786e-17
      7640.00  4.55213e-17
      7642.00  3.93159e-17
      7644.00  3.66806e-17
      7646.00  4.21937e-17
      7648.00  4.29902e-17
      7650.00  5.10800e-17
      7652.00  4.42072e-17
      7654.00  4.57066e-17
      7656.00  4.49479e-17
      7658.00  4.32594e-17
      7660.00  4.56870e-17
      7662.00  4.43303e-17
      7664.00  4.54379e-17
      7666.00  4.27199e-17
      7668.00  4.21886e-17
      7670.00  4.29326e-17
      7672.00  4.65419e-17
      7674.00  4.37282e-17
      7676.00  4.62831e-17
      7678.00  4.80624e-17
      7680.00  4.59423e-17
      7682.00  4.59519e-17
      7684.00  4.15441e-17
      7686.00  3.97105e-17
      7688.00  4.24519e-17
      7690.00  4.81795e-17
      7692.00  4.64811e-17
      7694.00  4.26368e-17
      7696.00  4.41228e-17
      7698.00  4.68057e-17
      7700.00  4.58397e-17
      7702.00  4.67100e-17
      7704.00  4.52296e-17
      7706.00  4.56642e-17
      7708.00  4.61159e-17
      7710.00  4.07780e-17
      7712.00  4.83131e-17
      7714.00  4.79526e-17
      7716.00  4.33634e-17
      7718.00  4.40226e-17
      7720.00  3.90337e-17
      7722.00  4.67485e-17
      7724.00  4.77491e-17
      7726.00  4.49150e-17
      7728.00  4.83363e-17
      7730.00  4.56191e-17
      7732.00  4.37764e-17
      7734.00  4.73941e-17
      7736.00  4.69448e-17
      7738.00  4.34086e-17
      7740.00  4.41642e-17
      7742.00  4.41777e-17
      7744.00  4.42060e-17
      7746.00  4.49477e-17
      7748.00  4.69458e-17
      7750.00  4.82130e-17
      7752.00  4.65448e-17
      7754.00  4.25351e-17
      7756.00  4.65210e-17
      7758.00  4.47512e-17
      7760.00  4.18285e-17
      7762.00  4.17933e-17
      7764.00  4.58433e-17
      7766.00  4.29993e-17
      7768.00  4.12880e-17
      7770.00  4.40608e-17
      7772.00  4.52435e-17
      7774.00  4.61280e-17
      7776.00  4.25018e-17
      7778.00  4.58487e-17
      7780.00  4.48391e-17
      7782.00  4.29975e-17
      7784.00  4.72446e-17
      7786.00  4.43464e-17
      7788.00  4.28787e-17
      7790.00  4.84250e-17
      7792.00  4.89002e-17
      7794.00  4.99279e-17
      7796.00  4.86948e-17
      7798.00  4.67881e-17
      7800.00  4.81982e-17
      7802.00  4.70192e-17
      7804.00  4.56181e-17
      7806.00  4.74034e-17
      7808.00  4.60419e-17
      7810.00  4.71824e-17
      7812.00  4.88566e-17
      7814.00  4.62756e-17
      7816.00  4.47656e-17
      7818.00  4.97211e-17
      7820.00  5.05885e-17
      7822.00  4.42116e-17
      7824.00  4.54422e-17
      7826.00  4.32467e-17
      7828.00  4.20658e-17
      7830.00  4.74080e-17
      7832.00  4.73457e-17
      7834.00  4.60020e-17
      7836.00  4.57361e-17
      7838.00  4.89101e-17
      7840.00  5.43780e-17
      7842.00  4.87984e-17
      7844.00  4.54205e-17
      7846.00  4.53166e-17
      7848.00  5.02815e-17
      7850.00  5.04044e-17
      7852.00  4.50630e-17
      7854.00  4.42769e-17
      7856.00  4.65666e-17
      7858.00  4.87009e-17
      7860.00  4.45165e-17
      7862.00  5.07794e-17
      7864.00  4.56310e-17
      7866.00  4.83427e-17
      7868.00  4.82449e-17
      7870.00  4.83334e-17
      7872.00  4.39561e-17
      7874.00  4.45259e-17
      7876.00  5.34038e-17
      7878.00  4.33017e-17
      7880.00  4.69859e-17
      7882.00  5.00682e-17
      7884.00  4.44146e-17
      7886.00  5.23419e-17
      7888.00  4.83813e-17
      7890.00  4.78663e-17
      7892.00  4.68904e-17
      7894.00  4.63115e-17
      7896.00  4.51626e-17
      7898.00  4.62492e-17
      7900.00  4.83515e-17
      7902.00  4.75219e-17
      7904.00  4.79297e-17
      7906.00  4.69064e-17
      7908.00  5.12704e-17
      7910.00  5.84461e-17
      7912.00  5.30247e-17
      7914.00  4.55867e-17
      7916.00  4.79227e-17
      7918.00  5.13532e-17
      7920.00  5.13202e-17
      7922.00  4.72136e-17
      7924.00  4.82501e-17
      7926.00  4.59797e-17
      7928.00  4.81618e-17
      7930.00  4.84100e-17
      7932.00  4.60668e-17
      7934.00  4.79838e-17
      7936.00  4.96428e-17
      7938.00  4.87064e-17
      7940.00  4.73406e-17
      7942.00  4.93357e-17
      7944.00  5.17801e-17
      7946.00  5.08198e-17
      7948.00  5.06709e-17
      7950.00  5.43587e-17
      7952.00  5.08389e-17
      7954.00  4.69985e-17
      7956.00  4.99866e-17
      7958.00  4.67163e-17
      7960.00  5.05304e-17
      7962.00  5.32283e-17
      7964.00  5.54334e-17
      7966.00  5.38137e-17
      7968.00  4.93203e-17
      7970.00  4.90501e-17
      7972.00  4.98193e-17
      7974.00  4.68255e-17
      7976.00  5.06862e-17
      7978.00  4.60003e-17
      7980.00  4.27244e-17
      7982.00  4.76689e-17
      7984.00  4.59690e-17
      7986.00  4.41180e-17
      7988.00  4.97654e-17
      7990.00  5.79809e-17
      7992.00  5.09488e-17
      7994.00  5.01959e-17
      7996.00  4.52431e-17
      7998.00  4.46314e-17
      8000.00  5.07713e-17
      8002.00  5.30649e-17
      8004.00  4.84521e-17
      8006.00  4.74402e-17
      8008.00  4.95942e-17
      8010.00  5.38981e-17
      8012.00  5.45830e-17
      8014.00  4.61165e-17
      8016.00  5.00745e-17
      8018.00  4.99874e-17
      8020.00  5.01399e-17
      8022.00  5.14286e-17
      8024.00  4.87669e-17
      8026.00  4.57277e-17
      8028.00  4.79360e-17
      8030.00  4.82793e-17
      8032.00  4.91526e-17
      8034.00  5.05608e-17
      8036.00  5.17575e-17
      8038.00  5.07932e-17
      8040.00  4.60435e-17
      8042.00  4.61998e-17
      8044.00  4.92943e-17
      8046.00  4.80763e-17
      8048.00  4.74566e-17
      8050.00  4.83568e-17
      8052.00  4.74638e-17
      8054.00  4.80202e-17
      8056.00  4.90780e-17
      8058.00  5.22631e-17
      8060.00  5.49705e-17
      8062.00  5.24545e-17
      8064.00  4.35812e-17
      8066.00  5.00147e-17
      8068.00  4.81781e-17
      8070.00  4.44948e-17
      8072.00  4.54150e-17
      8074.00  4.49758e-17
      8076.00  4.77271e-17
      8078.00  4.60781e-17
      8080.00  4.80217e-17
      8082.00  5.11790e-17
      8084.00  4.71914e-17
      8086.00  4.82741e-17
      8088.00  4.79581e-17
      8090.00  4.76037e-17
      8092.00  4.99911e-17
      8094.00  4.87831e-17
      8096.00  4.43204e-17
      8098.00  4.64083e-17
      8100.00  4.75752e-17
      8102.00  5.12015e-17
      8104.00  4.65539e-17
      8106.00  4.69022e-17
      8108.00  4.98671e-17
      8110.00  4.96817e-17
      8112.00  4.98437e-17
      8114.00  4.60533e-17
      8116.00  4.66095e-17
      8118.00  4.91617e-17
      8120.00  4.58354e-17
      8122.00  4.89033e-17
      8124.00  4.64871e-17
      8126.00  4.72266e-17
      8128.00  4.81699e-17
      8130.00  4.75980e-17
      8132.00  4.80092e-17
      8134.00  4.77841e-17
      8136.00  4.60604e-17
      8138.00  4.73249e-17
      8140.00  4.43554e-17
      8142.00  4.45438e-17
      8144.00  4.54952e-17
      8146.00  4.50421e-17
      8148.00  5.22979e-17
      8150.00  4.95059e-17
      8152.00  4.56109e-17
      8154.00  4.37763e-17
      8156.00  4.60247e-17
      8158.00  4.75197e-17
      8160.00  4.86924e-17
      8162.00  5.03317e-17
      8164.00  5.03246e-17
      8166.00  4.99343e-17
      8168.00  4.78405e-17
      8170.00  5.27132e-17
      8172.00  4.91062e-17
      8174.00  4.77102e-17
      8176.00  4.58989e-17
      8178.00  4.57628e-17
      8180.00  4.74972e-17
      8182.00  4.84012e-17
      8184.00  4.69101e-17
      8186.00  4.37029e-17
      8188.00  4.67104e-17
      8190.00  4.77670e-17
      8192.00  4.99027e-17
      8194.00  4.63177e-17
      8196.00  4.23801e-17
      8198.00  4.68658e-17
      8200.00  4.46093e-17
      8202.00  4.76945e-17
      8204.00  4.75188e-17
      8206.00  4.49416e-17
      8208.00  4.90958e-17
      8210.00  4.85362e-17
      8212.00  4.42411e-17
      8214.00  4.53993e-17
      8216.00  4.66123e-17
      8218.00  4.85797e-17
      8220.00  4.74341e-17
      8222.00  4.84398e-17
      8224.00  5.00893e-17
      8226.00  4.38723e-17
      8228.00  4.44997e-17
      8230.00  4.34767e-17
      8232.00  4.62011e-17
      8234.00  4.76249e-17
      8236.00  4.86202e-17
      8238.00  4.88736e-17
      8240.00  4.85810e-17
      8242.00  4.91152e-17
      8244.00  5.03905e-17
      8246.00  4.77719e-17
      8248.00  4.92665e-17
      8250.00  4.27300e-17
      8252.00  4.30547e-17
      8254.00  4.47792e-17
      8256.00  4.65443e-17
      8258.00  4.62352e-17
      8260.00  4.32268e-17
      8262.00  4.29876e-17
      8264.00  4.30894e-17
      8266.00  4.59932e-17
      8268.00  4.60317e-17
      8270.00  4.65721e-17
      8272.00  4.96604e-17
      8274.00  4.97594e-17
      8276.00  4.84151e-17
      8278.00  4.90807e-17
      8280.00  4.67316e-17
      8282.00  4.67103e-17
      8284.00  5.03003e-17
      8286.00  4.83438e-17
      8288.00  4.97554e-17
      8290.00  5.39033e-17
      8292.00  5.01201e-17
      8294.00  4.71561e-17
      8296.00  4.33408e-17
      8298.00  4.83401e-17
      8300.00  4.37153e-17
      8302.00  4.45806e-17
      8304.00  4.83266e-17
      8306.00  4.83403e-17
      8308.00  5.08768e-17
      8310.00  4.67722e-17
      8312.00  4.40576e-17
      8314.00  4.77032e-17
      8316.00  4.97616e-17
      8318.00  4.86088e-17
      8320.00  4.53205e-17
      8322.00  4.36704e-17
      8324.00  4.68228e-17
      8326.00  4.86645e-17
      8328.00  5.07285e-17
      8330.00  4.97304e-17
      8332.00  4.96628e-17
      8334.00  4.99782e-17
      8336.00  4.57580e-17
      8338.00  4.64450e-17
      8340.00  5.02458e-17
      8342.00  5.52440e-17
      8344.00  4.65657e-17
      8346.00  4.20144e-17
      8348.00  4.77981e-17
      8350.00  5.10784e-17
      8352.00  4.37174e-17
      8354.00  4.76006e-17
      8356.00  4.62494e-17
      8358.00  4.81921e-17
      8360.00  4.61088e-17
      8362.00  4.32429e-17
      8364.00  4.55562e-17
      8366.00  4.83932e-17
      8368.00  4.69986e-17
      8370.00  4.95635e-17
      8372.00  5.16046e-17
      8374.00  4.86805e-17
      8376.00  4.57571e-17
      8378.00  5.01183e-17
      8380.00  5.33626e-17
      8382.00  5.71016e-17
      8384.00  6.02573e-17
      8386.00  6.11701e-17
      8388.00  4.56304e-17
      8390.00  4.53799e-17
      8392.00  4.83980e-17
      8394.00  4.88473e-17
      8396.00  5.24198e-17
      8398.00  4.40838e-17
      8400.00  5.10172e-17
      8402.00  5.19376e-17
      8404.00  4.70493e-17
      8406.00  4.69792e-17
      8408.00  4.66806e-17
      8410.00  4.85786e-17
      8412.00  4.79424e-17
      8414.00  4.37353e-17
      8416.00  4.32670e-17
      8418.00  4.43796e-17
      8420.00  4.29897e-17
      8422.00  4.74726e-17
      8424.00  5.13129e-17
      8426.00  5.41131e-17
      8428.00  4.73137e-17
      8430.00  4.93220e-17
      8432.00  4.28500e-17
      8434.00  4.77043e-17
      8436.00  4.71727e-17
      8438.00  4.50518e-17
      8440.00  4.21305e-17
      8442.00  4.28926e-17
      8444.00  4.42793e-17
      8446.00  4.16316e-17
      8448.00  4.39869e-17
      8450.00  4.70987e-17
      8452.00  4.37621e-17
      8454.00  4.70848e-17
      8456.00  4.29716e-17
      8458.00  4.10777e-17
      8460.00  4.66063e-17
      8462.00  4.81587e-17
      8464.00  4.20042e-17
      8466.00  4.42448e-17
      8468.00  4.46849e-17
      8470.00  4.70029e-17
      8472.00  4.70653e-17
      8474.00  5.09539e-17
      8476.00  4.71743e-17
      8478.00  4.89753e-17
      8480.00  4.73585e-17
      8482.00  4.64137e-17
      8484.00  4.79553e-17
      8486.00  5.00007e-17
      8488.00  4.50482e-17
      8490.00  4.60897e-17
      8492.00  4.81129e-17
      8494.00  4.86884e-17
      8496.00  4.80896e-17
      8498.00  4.95369e-17
      8500.00  4.60380e-17
      8502.00  4.60150e-17
      8504.00  4.39090e-17
      8506.00  4.61849e-17
      8508.00  4.19003e-17
      8510.00  4.15482e-17
      8512.00  4.62270e-17
      8514.00  4.81396e-17
      8516.00  4.75287e-17
      8518.00  4.57462e-17
      8520.00  4.96799e-17
      8522.00  4.49175e-17
      8524.00  4.46484e-17
      8526.00  4.62379e-17
      8528.00  4.40791e-17
      8530.00  4.20480e-17
      8532.00  4.58692e-17
      8534.00  4.54452e-17
      8536.00  4.30646e-17
      8538.00  4.59594e-17
      8540.00  4.51183e-17
      8542.00  4.51023e-17
      8544.00  4.37334e-17
      8546.00  4.58464e-17
      8548.00  4.67070e-17
      8550.00  4.82350e-17
      8552.00  4.77035e-17
      8554.00  4.41392e-17
      8556.00  4.36673e-17
      8558.00  4.24641e-17
      8560.00  4.49090e-17
      8562.00  4.26766e-17
      8564.00  4.31963e-17
      8566.00  4.33891e-17
      8568.00  4.49885e-17
      8570.00  4.50649e-17
      8572.00  4.24633e-17
      8574.00  4.48286e-17
      8576.00  4.20948e-17
      8578.00  4.30441e-17
      8580.00  4.40122e-17
      8582.00  4.37980e-17
      8584.00  4.19696e-17
      8586.00  4.45674e-17
      8588.00  4.69319e-17
      8590.00  4.57511e-17
      8592.00  4.52146e-17
      8594.00  4.42664e-17
      8596.00  4.35587e-17
      8598.00  4.28764e-17
      8600.00  4.87235e-17
      8602.00  4.71184e-17
      8604.00  4.45401e-17
      8606.00  4.38807e-17
      8608.00  4.40042e-17
      8610.00  4.47754e-17
      8612.00  4.41370e-17
      8614.00  4.31202e-17
      8616.00  4.44218e-17
      8618.00  4.94655e-17
      8620.00  4.74088e-17
      8622.00  4.76359e-17
      8624.00  4.21655e-17
      8626.00  4.07556e-17
      8628.00  4.57740e-17
      8630.00  4.74426e-17
      8632.00  4.41138e-17
      8634.00  4.33510e-17
      8636.00  4.60803e-17
      8638.00  4.35423e-17
      8640.00  4.81543e-17
      8642.00  4.88283e-17
      8644.00  4.27163e-17
      8646.00  4.14436e-17
      8648.00  4.66409e-17
      8650.00  4.61615e-17
      8652.00  4.21742e-17
      8654.00  4.57273e-17
      8656.00  4.34880e-17
      8658.00  4.87980e-17
      8660.00  4.58447e-17
      8662.00  4.68430e-17
      8664.00  5.15809e-17
      8666.00  4.38140e-17
      8668.00  4.16815e-17
      8670.00  4.21877e-17
      8672.00  4.37013e-17
      8674.00  4.04683e-17
      8676.00  4.33780e-17
      8678.00  4.32555e-17
      8680.00  4.62494e-17
      8682.00  4.94188e-17
      8684.00  4.53949e-17
      8686.00  4.71301e-17
      8688.00  4.47117e-17
      8690.00  4.60736e-17
      8692.00  4.26206e-17
      8694.00  4.29779e-17
      8696.00  4.51138e-17
      8698.00  4.07901e-17
      8700.00  4.20978e-17
      8702.00  4.22546e-17
      8704.00  4.56418e-17
      8706.00  4.81194e-17
      8708.00  4.38984e-17
      8710.00  4.13561e-17
      8712.00  4.20778e-17
      8714.00  4.38170e-17
      8716.00  4.41845e-17
      8718.00  4.37681e-17
      8720.00  4.56556e-17
      8722.00  4.29985e-17
      8724.00  4.21214e-17
      8726.00  4.25534e-17
      8728.00  4.10424e-17
      8730.00  4.17871e-17
      8732.00  4.62793e-17
      8734.00  4.38014e-17
      8736.00  4.38503e-17
      8738.00  4.15672e-17
      8740.00  4.40806e-17
      8742.00  4.50862e-17
      8744.00  4.36583e-17
      8746.00  4.22139e-17
      8748.00  4.15757e-17
      8750.00  4.36000e-17
      8752.00  4.46201e-17
      8754.00  4.55847e-17
      8756.00  4.81884e-17
      8758.00  4.44205e-17
      8760.00  4.56937e-17
      8762.00  4.41712e-17
      8764.00  4.72920e-17
      8766.00  4.57767e-17
      8768.00  4.30428e-17
      8770.00  4.64798e-17
      8772.00  4.51424e-17
      8774.00  4.73509e-17
      8776.00  4.11430e-17
      8778.00  3.39054e-17
      8780.00  4.44122e-17
      8782.00  3.99662e-17
      8784.00  4.48294e-17
      8786.00  4.61475e-17
      8788.00  3.90409e-17
      8790.00  4.07840e-17
      8792.00  4.66478e-17
      8794.00  4.59009e-17
      8796.00  4.43382e-17
      8798.00  4.29413e-17
      8800.00  4.56342e-17
      8802.00  4.67315e-17
      8804.00  4.48860e-17
      8806.00  4.28129e-17
      8808.00  4.62295e-17
      8810.00  4.42304e-17
      8812.00  4.36190e-17
      8814.00  4.47048e-17
      8816.00  4.61767e-17
      8818.00  3.99235e-17
      8820.00  4.14523e-17
      8822.00  4.92150e-17
      8824.00  4.67448e-17
      8826.00  3.80064e-17
      8828.00  4.36168e-17
      8830.00  5.04133e-17
      8832.00  4.78985e-17
      8834.00  4.70454e-17
      8836.00  3.83458e-17
      8838.00  4.38606e-17
      8840.00  4.18884e-17
      8842.00  4.28191e-17
      8844.00  4.12576e-17
      8846.00  3.91724e-17
      8848.00  4.05656e-17
      8850.00  3.78847e-17
      8852.00  3.85754e-17
      8854.00  4.35953e-17
      8856.00  3.95578e-17
      8858.00  3.80941e-17
      8860.00  4.09326e-17
      8862.00  4.51092e-17
      8864.00  4.05404e-17
      8866.00  3.99270e-17
      8868.00  4.36382e-17
      8870.00  4.23752e-17
      8872.00  4.04851e-17
      8874.00  4.05275e-17
      8876.00  4.44864e-17
      8878.00  4.10666e-17
      8880.00  4.18810e-17
      8882.00  4.42827e-17
      8884.00  4.16240e-17
      8886.00  3.80776e-17
      8888.00  4.39283e-17
      8890.00  4.15570e-17
      8892.00  4.26665e-17
      8894.00  4.28962e-17
      8896.00  4.33380e-17
      8898.00  4.54272e-17
      8900.00  5.16303e-17
      8902.00  4.24468e-17
      8904.00  3.68163e-17
      8906.00  4.29418e-17
      8908.00  4.36068e-17
      8910.00  4.28066e-17
      8912.00  3.97164e-17
      8914.00  4.37671e-17
      8916.00  4.68155e-17
      8918.00  4.16858e-17
      8920.00  3.94172e-17
      8922.00  4.54938e-17
      8924.00  4.55482e-17
      8926.00  4.11139e-17
      8928.00  4.30650e-17
      8930.00  3.96888e-17
      8932.00  3.97931e-17
      8934.00  4.02807e-17
      8936.00  4.21162e-17
      8938.00  3.99579e-17
      8940.00  3.86851e-17
      8942.00  3.72296e-17
      8944.00  4.21999e-17
      8946.00  4.14080e-17
      8948.00  3.95390e-17
      8950.00  4.09149e-17
      8952.00  4.05647e-17
      8954.00  4.07610e-17
      8956.00  3.77151e-17
      8958.00  3.68733e-17
      8960.00  3.75678e-17
      8962.00  4.08959e-17
      8964.00  4.14437e-17
      8966.00  4.48012e-17
      8968.00  3.86360e-17
      8970.00  3.74852e-17
      8972.00  3.82878e-17
      8974.00  3.93774e-17
      8976.00  4.31755e-17
      8978.00  4.28217e-17
      8980.00  4.11312e-17
      8982.00  3.88359e-17
      8984.00  3.76553e-17
      8986.00  4.19449e-17
      8988.00  4.33903e-17
      8990.00  4.32815e-17
      8992.00  4.33477e-17
      8994.00  4.12377e-17
      8996.00  4.34184e-17
      8998.00  3.99486e-17
      9000.00  4.35975e-17
      9002.00  4.36128e-17
      9004.00  4.07808e-17
      9006.00  4.18871e-17
      9008.00  4.44585e-17
      9010.00  4.12429e-17
      9012.00  4.20428e-17
      9014.00  4.21473e-17
      9016.00  4.61040e-17
      9018.00  4.07253e-17
      9020.00  4.28658e-17
      9022.00  4.24540e-17
      9024.00  4.40117e-17
      9026.00  4.11966e-17
      9028.00  4.15549e-17
      9030.00  4.15167e-17
      9032.00  4.22895e-17
      9034.00  3.97771e-17
      9036.00  4.09012e-17
      9038.00  4.04820e-17
      9040.00  4.24065e-17
      9042.00  4.25315e-17
      9044.00  4.25731e-17
      9046.00  4.46802e-17
      9048.00  4.29704e-17
      9050.00  3.99368e-17
      9052.00  4.00147e-17
      9054.00  4.15687e-17
      9056.00  4.41181e-17
      9058.00  4.47991e-17
      9060.00  4.56318e-17
      9062.00  4.37810e-17
      9064.00  4.16613e-17
      9066.00  4.41411e-17
      9068.00  4.37154e-17
      9070.00  4.54131e-17
      9072.00  4.24536e-17
      9074.00  3.92920e-17
      9076.00  4.03680e-17
      9078.00  4.04111e-17
      9080.00  4.19552e-17
      9082.00  4.46499e-17
      9084.00  4.16931e-17
      9086.00  4.38684e-17
      9088.00  4.36774e-17
      9090.00  3.78983e-17
      9092.00  4.07382e-17
      9094.00  4.23049e-17
      9096.00  4.00370e-17
      9098.00  4.05206e-17
      9100.00  4.15344e-17
      9102.00  4.12751e-17
      9104.00  3.87289e-17
      9106.00  4.05941e-17
      9108.00  4.59663e-17
      9110.00  4.13076e-17
      9112.00  4.00956e-17
      9114.00  4.21576e-17
      9116.00  4.13020e-17
      9118.00  4.08654e-17
      9120.00  3.89309e-17
      9122.00  4.27248e-17
      9124.00  4.43681e-17
      9126.00  4.23768e-17
      9128.00  3.71738e-17
      9130.00  4.14903e-17
      9132.00  4.25418e-17
      9134.00  4.32140e-17
      9136.00  4.40087e-17
      9138.00  4.29330e-17
      9140.00  4.43267e-17
      9142.00  4.23125e-17
      9144.00  4.38264e-17
      9146.00  4.51099e-17
      9148.00  4.23755e-17
      9150.00  4.39399e-17
      9152.00  4.34531e-17
      9154.00  4.64022e-17
      9156.00  4.05751e-17
      9158.00  3.64268e-17
      9160.00  3.78312e-17
      9162.00  3.92114e-17
      9164.00  4.02802e-17
      9166.00  3.89868e-17
      9168.00  3.86344e-17
      9170.00  4.16105e-17
      9172.00  4.57599e-17
      9174.00  4.16584e-17
      9176.00  4.31262e-17
      9178.00  4.30801e-17
      9180.00  4.42983e-17
      9182.00  4.10906e-17
      9184.00  4.37462e-17
      9186.00  4.35619e-17
      9188.00  4.23904e-17
      9190.00  4.27301e-17
      9192.00  4.32215e-17
      9194.00  4.31398e-17
      9196.00  4.41882e-17
      9198.00  4.25768e-17
      9200.00  4.02150e-17
      9202.00  3.79079e-17
      9204.00  3.29159e-17
      9206.00  3.31938e-17
      9208.00  3.70076e-17
      9210.00  3.71592e-17
      9212.00  4.04110e-17
      9214.00  4.25532e-17
      9216.00  4.16474e-17
      9218.00  4.56649e-17
      9220.00  4.67538e-17
      9222.00  4.29027e-17
      9224.00  4.03554e-17
      9226.00  4.68683e-17
      9228.00  4.84985e-17
      9230.00  4.79105e-17
      9232.00  4.70932e-17
      9234.00  4.62114e-17
      9236.00  4.49789e-17
      9238.00  4.01329e-17
      9240.00  4.59009e-17
      9242.00  4.40409e-17
      9244.00  4.65249e-17
      9246.00  4.38529e-17
      9248.00  4.66684e-17
      9250.00  4.61656e-17
      9252.00  4.78092e-17
      9254.00  4.85220e-17
      9256.00  4.56870e-17
      9258.00  4.54449e-17
      9260.00  4.40786e-17
      9262.00  4.31402e-17
      9264.00  4.52756e-17
      9266.00  4.38189e-17
      9268.00  4.39885e-17
      9270.00  3.98616e-17
      9272.00  4.28966e-17
      9274.00  4.34476e-17
      9276.00  4.55803e-17
      9278.00  4.27079e-17
      9280.00  4.12507e-17
      9282.00  4.57672e-17
      9284.00  4.51486e-17
      9286.00  4.30106e-17
      9288.00  4.70564e-17
      9290.00  4.81068e-17
      9292.00  4.58962e-17
      9294.00  4.61188e-17
      9296.00  4.61747e-17
      9298.00  4.18634e-17
      9300.00  3.86603e-17
      9302.00  4.71301e-17
      9304.00  4.46616e-17
      9306.00  4.79676e-17
      9308.00  5.34239e-17
      9310.00  4.10760e-17
      9312.00  4.17594e-17
      9314.00  4.81593e-17
      9316.00  3.82967e-17
      9318.00  4.58077e-17
      9320.00  5.27707e-17
      9322.00  5.22929e-17
      9324.00  4.32352e-17
      9326.00  4.46626e-17
      9328.00  3.81627e-17
      9330.00  4.09561e-17
      9332.00  3.73233e-17
      9334.00  4.08489e-17
      9336.00  4.23725e-17
      9338.00  4.06180e-17
      9340.00  3.56934e-17
      9342.00  3.49848e-17
      9344.00  3.91159e-17
      9346.00  4.27634e-17
      9348.00  4.37015e-17
      9350.00  3.72854e-17
      9352.00  4.01050e-17
      9354.00  4.12550e-17
      9356.00  4.14617e-17
      9358.00  4.37153e-17
      9360.00  4.39857e-17
      9362.00  4.26523e-17
      9364.00  4.43077e-17
      9366.00  4.30710e-17
      9368.00  4.31783e-17
      9370.00  4.52967e-17
      9372.00  5.10176e-17
      9374.00  3.39331e-17
      9376.00  2.01572e-17
      9378.00  4.69810e-17
      9380.00  6.78166e-17
      9382.00  5.63199e-17
      9384.00  5.19711e-17
      9386.00  5.18091e-17
      9388.00  4.93856e-17
      9390.00  4.11067e-17
      9392.00  4.14187e-17
      9394.00  4.07848e-17
      9396.00  3.81589e-17
      9398.00  4.09516e-17
      9400.00  4.32175e-17
      9402.00  5.19254e-17
      9404.00  4.15381e-17
      9406.00  3.87400e-17
      9408.00  4.31009e-17
      9410.00  4.05571e-17
      9412.00  4.13233e-17
      9414.00  4.23464e-17
      9416.00  4.31692e-17
      9418.00  4.61048e-17
      9420.00  4.34639e-17
      9422.00  4.21530e-17
      9424.00  4.05792e-17
      9426.00  4.98897e-17
      9428.00  4.88485e-17
      9430.00  4.70089e-17
      9432.00  3.76835e-17
      9434.00  4.44099e-17
      9436.00  4.44058e-17
      9438.00  3.95916e-17
      9440.00  3.85780e-17
      9442.00  3.00760e-17
      9444.00  4.31245e-17
      9446.00  4.09283e-17
      9448.00  4.92150e-17
      9450.00  4.80405e-17
      9452.00  4.20149e-17
      9454.00  4.25223e-17
      9456.00  4.33978e-17
      9458.00  4.38130e-17
      9460.00  4.20874e-17
      9462.00  4.92919e-17
      9464.00  4.75746e-17
      9466.00  4.26644e-17
      9468.00  4.43631e-17
      9470.00  3.77216e-17
      9472.00  5.22225e-17
      9474.00  4.78066e-17
      9476.00  3.76977e-17
      9478.00  4.19152e-17
      9480.00  4.57645e-17
      9482.00  4.64968e-17
      9484.00  4.25597e-17
      9486.00  4.54068e-17
      9488.00  4.87382e-17
      9490.00  4.11808e-17
      9492.00  3.84456e-17
      9494.00  4.30134e-17
      9496.00  4.32179e-17
      9498.00  4.79656e-17
      9500.00  5.23250e-17
      9502.00  6.10063e-17
      9504.00  5.36118e-17
      9506.00  4.37427e-17
      9508.00  4.19315e-17
      9510.00  4.34992e-17
      9512.00  3.97518e-17
      9514.00  5.06989e-17
      9516.00  4.26879e-17
      9518.00  4.15826e-17
      9520.00  4.63532e-17
      9522.00  4.13728e-17
      9524.00  4.32919e-17
      9526.00  4.30116e-17
      9528.00  4.36984e-17
      9530.00  4.67375e-17
      9532.00  4.49272e-17
      9534.00  4.64034e-17
      9536.00  4.55758e-17
      9538.00  4.71530e-17
      9540.00  5.12449e-17
      9542.00  4.70166e-17
      9544.00  4.31078e-17
      9546.00  4.53680e-17
      9548.00  5.15736e-17
      9550.00  4.30620e-17
      9552.00  4.75988e-17
      9554.00  4.39347e-17
      9556.00  3.99950e-17
      9558.00  4.34978e-17
      9560.00  4.41166e-17
      9562.00  4.57608e-17
      9564.00  4.23644e-17
      9566.00  4.74277e-17
      9568.00  5.22863e-17
      9570.00  4.07077e-17
      9572.00  4.14659e-17
      9574.00  4.39345e-17
      9576.00  4.44188e-17
      9578.00  4.05472e-17
      9580.00  4.09478e-17
      9582.00  3.96405e-17
      9584.00  4.43729e-17
      9586.00  4.21635e-17
      9588.00  3.45742e-17
      9590.00  3.93249e-17
      9592.00  4.35878e-17
      9594.00  4.44303e-17
      9596.00  4.07504e-17
      9598.00  3.87191e-17
      9600.00  4.08301e-17
      9602.00  4.55527e-17
      9604.00  4.38730e-17
      9606.00  4.08065e-17
      9608.00  4.31943e-17
      9610.00  4.56969e-17
      9612.00  4.05609e-17
      9614.00  3.99472e-17
      9616.00  4.29222e-17
      9618.00  3.89139e-17
      9620.00  4.18303e-17
      9622.00  4.37692e-17
      9624.00  4.17758e-17
      9626.00  3.90477e-17
      9628.00  4.43966e-17
      9630.00  4.74164e-17
      9632.00  4.23214e-17
      9634.00  4.09744e-17
      9636.00  4.07186e-17
      9638.00  4.13920e-17
      9640.00  4.37286e-17
      9642.00  4.12513e-17
      9644.00  4.16924e-17
      9646.00  4.16379e-17
      9648.00  3.92462e-17
      9650.00  4.10000e-17
      9652.00  4.16134e-17
      9654.00  4.17262e-17
      9656.00  4.00169e-17
      9658.00  4.16926e-17
      9660.00  4.13756e-17
      9662.00  4.18473e-17
      9664.00  4.47148e-17
      9666.00  4.27855e-17
      9668.00  4.48321e-17
      9670.00  4.24147e-17
      9672.00  3.66241e-17
      9674.00  4.59400e-17
      9676.00  4.73351e-17
      9678.00  4.43999e-17
      9680.00  4.26143e-17
      9682.00  4.49216e-17
      9684.00  4.70874e-17
      9686.00  4.23252e-17
      9688.00  3.97592e-17
      9690.00  3.93156e-17
      9692.00  4.09973e-17
      9694.00  5.03973e-17
      9696.00  4.28178e-17
      9698.00  4.46699e-17
      9700.00  4.52083e-17
      9702.00  4.02509e-17
      9704.00  4.75196e-17
      9706.00  4.53901e-17
      9708.00  4.45064e-17
      9710.00  3.95778e-17
      9712.00  4.08425e-17
      9714.00  4.59128e-17
      9716.00  4.54642e-17
      9718.00  3.46501e-17
      9720.00  3.46936e-17
      9722.00  3.93664e-17
      9724.00  4.06433e-17
      9726.00  4.05764e-17
      9728.00  4.30106e-17
      9730.00  4.07694e-17
      9732.00  4.32397e-17
      9734.00  4.26538e-17
      9736.00  3.91639e-17
      9738.00  4.46038e-17
      9740.00  4.08766e-17
      9742.00  4.26479e-17
      9744.00  4.66347e-17
      9746.00  4.51766e-17
      9748.00  4.12615e-17
      9750.00  4.49684e-17
      9752.00  4.27306e-17
      9754.00  3.89652e-17
      9756.00  3.90548e-17
      9758.00  4.09135e-17
      9760.00  4.04122e-17
      9762.00  4.30622e-17
      9764.00  3.97765e-17
      9766.00  4.18510e-17
      9768.00  4.14094e-17
      9770.00  4.40412e-17
      9772.00  4.09714e-17
      9774.00  4.40820e-17
      9776.00  4.70101e-17
      9778.00  4.17763e-17
      9780.00  4.06228e-17
      9782.00  3.98474e-17
      9784.00  4.39233e-17
      9786.00  4.55590e-17
      9788.00  5.06261e-17
      9790.00  4.23248e-17
      9792.00  3.88551e-17
      9794.00  4.33180e-17
      9796.00  4.01013e-17
      9798.00  4.46112e-17
      9800.00  4.17481e-17
      9802.00  4.12088e-17
      9804.00  4.52325e-17
      9806.00  4.38219e-17
      9808.00  4.13860e-17
      9810.00  3.57948e-17
      9812.00  3.84920e-17
      9814.00  3.54357e-17
      9816.00  3.68225e-17
      9818.00  4.17184e-17
      9820.00  4.62258e-17
      9822.00  4.07880e-17
      9824.00  4.07244e-17
      9826.00  4.54539e-17
      9828.00  4.47286e-17
      9830.00  4.34914e-17
      9832.00  4.65486e-17
      9834.00  4.16133e-17
      9836.00  4.03878e-17
      9838.00  4.18299e-17
      9840.00  4.06576e-17
      9842.00  4.46179e-17
      9844.00  4.49888e-17
      9846.00  4.18661e-17
      9848.00  4.53975e-17
      9850.00  4.82944e-17
      9852.00  3.61769e-17
      9854.00  3.40881e-17
      9856.00  4.00813e-17
      9858.00  4.26201e-17
      9860.00  4.85430e-17
      9862.00  4.38469e-17
      9864.00  4.05907e-17
      9866.00  3.59181e-17
      9868.00  3.63177e-17
      9870.00  4.87773e-17
      9872.00  4.39388e-17
      9874.00  4.41849e-17
      9876.00  3.25385e-17
      9878.00  3.51355e-17
      9880.00  4.40156e-17
      9882.00  4.01423e-17
      9884.00  5.15646e-17
      9886.00  5.43189e-17
      9888.00  4.54896e-17
      9890.00  4.10642e-17
      9892.00  4.68894e-17
      9894.00  3.58158e-17
      9896.00  3.60908e-17
      9898.00  4.09451e-17
      9900.00  3.32842e-17
      9902.00  3.80017e-17
      9904.00  5.17135e-17
      9906.00  5.75398e-17
      9908.00  5.71695e-17
      9910.00  5.67487e-17
      9912.00  5.55119e-17
      9914.00  5.03878e-17
      9916.00  3.73485e-17
      9918.00  3.98281e-17
      9920.00  4.17430e-17
      9922.00  3.65649e-17
      9924.00  4.82104e-17
      9926.00  4.03788e-17
      9928.00  4.17590e-17
      9930.00  4.66204e-17
      9932.00  3.04830e-17
      9934.00  3.96115e-17
      9936.00  4.09566e-17
      9938.00  4.38608e-17
      9940.00  3.67184e-17
      9942.00  3.67798e-17
      9944.00  3.97493e-17
      9946.00  3.15481e-17
      9948.00  3.58342e-17
      9950.00  5.56469e-17
      9952.00  3.83080e-17
      9954.00  4.07637e-17
      9956.00  4.22702e-17
      9958.00  5.29834e-17
      9960.00  5.12706e-17
      9962.00  3.44132e-17
      9964.00  4.73122e-17
      9966.00  4.80063e-17
      9968.00  2.79949e-17
      9970.00  4.13324e-17
      9972.00  4.25329e-17
      9974.00  4.51163e-17
      9976.00  3.83004e-17
      9978.00  3.67049e-17
      9980.00  4.57333e-17
      9982.00  3.97522e-17
      9984.00  3.94290e-17
      9986.00  4.15011e-17
      9988.00  5.01009e-17
      9990.00  4.49654e-17
      9992.00  3.83621e-17
      9994.00  4.32096e-17
      9996.00  4.23293e-17
      9998.00  3.80337e-17
      10000.0  3.76842e-17
      10002.0  4.49214e-17
      10004.0  4.29715e-17
      10006.0  3.92656e-17
      10008.0  5.01316e-17
      10010.0  4.12127e-17
      10012.0  3.49012e-17
      10014.0  3.81127e-17
      10016.0  4.42124e-17
      10018.0  3.81679e-17
      10020.0  4.39486e-17
      10022.0  4.74906e-17
      10024.0  5.24473e-17
      10026.0  4.34186e-17
      10028.0  3.22409e-17
      10030.0  2.82879e-17
      10032.0  3.56873e-17
      10034.0  4.27413e-17
      10036.0  4.97161e-17
      10038.0  4.22315e-17
      10040.0  3.13092e-17
      10042.0  2.97351e-17
      10044.0  3.60450e-17
      10046.0  4.29423e-17
      10048.0  3.30586e-17
      10050.0  4.28065e-17
      10052.0  4.84699e-17
      10054.0  4.53858e-17
      10056.0  4.75067e-17
      10058.0  4.94528e-17
      10060.0  5.16378e-17
      10062.0  4.67581e-17
      10064.0  3.59488e-17
      10066.0  3.40379e-17
      10068.0  4.00696e-17
      10070.0  3.69093e-17
      10072.0  4.33451e-17
      10074.0  4.60194e-17
      10076.0  4.80744e-17
      10078.0  4.43551e-17
      10080.0  3.93453e-17
      10082.0  3.56549e-17
      10084.0  3.67188e-17
      10086.0  3.21141e-17
      10088.0  3.10188e-17
      10090.0  3.36152e-17
      10092.0  3.66214e-17
      10094.0  4.03556e-17
      10096.0  4.59428e-17
      10098.0  3.84965e-17
      10100.0  4.79420e-17
      10102.0  3.97822e-17
      10104.0  3.66171e-17
      10106.0  3.04869e-17
      10108.0  4.13590e-17
      10110.0  4.51659e-17
      10112.0  3.79128e-17
      10114.0  3.51129e-17
      10116.0  3.43475e-17
      10118.0  3.60793e-17
      10120.0  4.01744e-17
      10122.0  4.75160e-17
      10124.0  3.94587e-17
      10126.0  2.43237e-17
      10128.0  3.37795e-17
      10130.0  3.50448e-17
      10132.0  4.62089e-17
      10134.0  3.94963e-17
      10136.0  3.91088e-17
      10138.0  3.59043e-17
      10140.0  4.72224e-17
      10142.0  3.12774e-17
      10144.0  3.85098e-17
      10146.0  2.55984e-17
      10148.0  3.09806e-17
      10150.0  4.09391e-17
      10152.0  3.56296e-17
      10154.0  3.06553e-17
      10156.0  2.15216e-17
      10158.0  5.01201e-17
      10160.0  5.07538e-17
      10162.0  5.32159e-17
      10164.0  4.29813e-17
      10166.0  5.18509e-17
      10168.0  3.62427e-17
      10170.0  4.61487e-17
      10172.0  4.71830e-17
      10174.0  5.07309e-17
      10176.0  5.21184e-17
      10178.0  4.93603e-17
      10180.0  2.58270e-17
      10182.0  1.37119e-17
      10184.0 -5.19587e-18
      10186.0  2.27603e-17
      10188.0  4.12075e-17
      10190.0  4.91908e-17
      10192.0  4.32338e-17
      10194.0  5.32748e-17
      10196.0  6.03981e-17
      10198.0  6.09227e-17
      10200.0  5.55569e-17
      10202.0  2.09049e-17
      10204.0  4.04996e-17
      10206.0  4.66618e-17
      10208.0  3.50841e-17
      10210.0  4.89127e-17
      10212.0  5.38775e-17
      10214.0  4.21633e-17
      10216.0  6.04680e-17
      10218.0  4.60393e-17
      10220.0  3.76621e-17
      10222.0  5.11222e-17
      10224.0  5.78115e-17
      10226.0  5.69845e-17
      10228.0  4.22555e-17
      10230.0  4.12096e-17
      10232.0  3.89200e-17
      10234.0  4.16818e-17
      10236.0  4.81574e-17
      10238.0  4.08190e-17
      10240.0  4.23187e-17
      10242.0  3.81026e-17
      10244.0  5.69526e-17
      10246.0  5.06703e-17
      10248.0  4.30088e-17
      10250.0  5.39572e-17
      10252.0  3.69879e-17
      10254.0  2.05535e-17
      10256.0  2.90159e-17
      10258.0  6.19050e-17
      10260.0  3.21614e-17
      10262.0  4.45564e-17
      10264.0  4.28368e-17
      10266.0  2.76262e-17
      10268.0  4.15754e-17
      10270.0  4.93539e-17
      10272.0  3.86158e-17
      10274.0  2.27571e-17
      10276.0  2.78096e-17
      10278.0  3.40925e-17
      10280.0  2.92112e-17
      10282.0 -2.05515e-18
      10284.0  2.38143e-17
      10286.0  8.59910e-17
      10288.0  3.73679e-17
      10290.0  3.36742e-17
      10292.0  5.44198e-17
      10294.0  6.48117e-17
      10296.0  3.72408e-17
      10298.0  9.81544e-18
      10300.0  3.28803e-17
