# SIMPLE = T / Written by IDL: Sat Jul 6 18:31:56 2013 
# BITPIX = -32 / IEEE single precision floating point 
# NAXIS = 1 / Number of axes 
# NAXIS1 = 3451 / 
# EXTEND = T / File may contain extensions 
# ORIGIN = 'NOAO-IRAF FITS Image Kernel July 2003' / FITS file originator 
# DATE = '2013-07-05T15:05:43' / Date FITS file was generated 
# IRAF-TLM= '2013-07-06T10:11:06' / Time of last modification 
# COMMENT FITS (Flexible Image Transport System) format defined in Astronomy and
# COMMENT Astrophysics Supplement Series v44/p363, v44/p371, v73/p359, v73/p365.
# COMMENT Contact the NASA Science Office of Standards and Technology for the 
# COMMENT FITS Definition document #100 and other FITS information. 
# OBJECT = '10htz ' / object title 
# OBSERVER= 'Arcavi+Zackay' / observer 
# IMGTYPE = ' ' / observation type 
# GAIN = 2.8 / e-/adu 
# RON = 8.5 / system noise 
# DICHROIC= 'D55 ' / Dichroic 
# APERTURE= '1.0 ' / aperture (arcsecs) 
# TURRET = 'APERTURE' / turret position 
# LAMPS = '0000000 ' / lamps: D-FeAr-Hg-Ar-Ne-He-InCand 
# RFILTER = 'OPEN ' / filter wheel 
# OEXPTIME= 300. / originaly req. exposure time 
# EXPTIME = 300. / actual exposure time 
# UTSHUT = '2013-07-05T04:58:44.075' / UT shutter open 
# NAMPSXY = '1 1 ' / number of amplifiers in y x 
# CCDSUM = '1 1 ' / binning in x y 
# ASEC1 = '[1:4141,1:440]' / amplifier section 1(LL) 
# BSEC1 = '[4122:4141,1:440]' / bias section 1(LL) 
# CSEC1 = '[1:4121,1:440]' / ccd section 1(LL) 
# DSEC1 = '[1:4121,1:440]' / data section 1(LL) 
# TSEC1 = '[8:4121,1:440]' / trim section 1(LL) 
# ROISEC = '[1:4114,780:1219]' / roi section 
# DETID = 'LBNL_4Kx2K_1' / detector ID 
# DETNUM = '1 ' / Detector Number 
# DETNAM = 'LBNL_4Kx2K' / detector name 
# FPA = 'DBSP_RED2' / focal plan array 
# UTC = '186 04:58:44.1' / <elapsed days> <time-obs> 
# UT = '04:58:44.1' / time-obs 
# OBSLST = '16:04:43.0' / lst-obs 
# RA = '13:08:37.45' / Right Ascencion 
# DEC = '+79:47:13.1' / Declination 
# HOURANG = 'W02:55:56.7' / Hour angle, TCS format 
# HA = '+02:55:56.7' / Hour angle 
# AIRMASS = '1.541 ' / Airmass 
# TELID = '200 ' / telescope ID 
# TELFOCUS= '40.04 mm' / focus position 
# CASSPA = '127.00 ' / cass ring angle 
# PARALLAC= '130.37 ' / parallactic angle 
# DHE = 'SDSU Gen III' / controller info 
# CCDTEMP = '130.045 ' / detector mount temp 
# SOFTVER = '3.4 ' / software version 
# HDR_REV = '4.3 ' / gfits version 
# GCOMMENT= ' ' / comment 
# ANGLE = '24 deg 38.2 min' / Grating Angle 
# GRATING = '600/4000' / lines/mm & Blaze 
# CRVAL1 = 3200.00 / 
# CRPIX1 = 1 / 
# IMCMB001= 'crrcred0104' 
# IMCMB002= 'crrcred0105' 
# NCOMBINE= 2 
# BANDID1 = 'spectrum - background fit, weights variance, clean yes' 
# BANDID2 = 'raw - background fit, weights none, clean no' 
# BANDID3 = 'background - background fit' 
# BANDID4 = 'sigma - background fit, weights variance, clean yes' 
# APNUM1 = '1 1 147.62 167.62' 
# DC-FLAG = 0 
# DCLOG1 = 'REFSPEC1 = cPTF10htz_redcarc_red.ms' 
# UNIT = 'electrons' 
# OBSERVAT= 'Palomar ' 
# FLUX_Z = 1.01600000000 / 
# FLUX_NUM= 0 / 
# FLUX_OBJ= 'BD+332642' / 
# OBS_PA = 1000.00 /observed position angle 
# CDELT1 = 2.00000 / 
# CTYPE1 = 'LINEAR ' / 
# W_RANGE = '5300. 10100.' / 
# BSTAR_Z = 1.01600000000 / 
# BSTARNUM= 0 / 
# BSTAROBJ= 'BD+332642' / 
# BARYVEL = 8.59303310918 / 
# SKYSHIFT= -0.459653855653 / 
# ATMSHIFT= -0.842722890557 / 
# EXTRACT = 'optimal ' / 
# REDUCER = 'pmv ' / 
# RED_DATE= 'Sat Jul 6 18:31:56 2013' /EPOCH OF REDUCTION 
# END 
# END 
# 
      3200.00  4.44975e-16
      3202.00  5.30910e-16
      3204.00  6.70685e-16
      3206.00  9.20245e-16
      3208.00  6.59033e-16
      3210.00  1.07194e-15
      3212.00  1.25834e-15
      3214.00  7.57424e-16
      3216.00  8.30695e-16
      3218.00  9.33546e-16
      3220.00  7.64531e-16
      3222.00  8.56770e-16
      3224.00  6.66131e-16
      3226.00  7.76941e-16
      3228.00  8.48486e-16
      3230.00  9.41074e-16
      3232.00  1.01684e-15
      3234.00  9.89518e-16
      3236.00  5.73843e-16
      3238.00  8.67659e-16
      3240.00  7.69856e-16
      3242.00  1.04515e-15
      3244.00  8.45451e-16
      3246.00  9.49472e-16
      3248.00  8.50284e-16
      3250.00  7.59369e-16
      3252.00  7.11277e-16
      3254.00  9.19522e-16
      3256.00  6.67846e-16
      3258.00  6.61026e-16
      3260.00  6.91966e-16
      3262.00  7.25073e-16
      3264.00  8.38870e-16
      3266.00  7.98353e-16
      3268.00  6.71281e-16
      3270.00  5.56720e-16
      3272.00  6.69831e-16
      3274.00  6.52811e-16
      3276.00  6.00203e-16
      3278.00  7.42630e-16
      3280.00  8.36897e-16
      3282.00  7.47767e-16
      3284.00  9.58644e-16
      3286.00  7.82901e-16
      3288.00  8.37809e-16
      3290.00  7.03393e-16
      3292.00  9.06547e-16
      3294.00  6.78781e-16
      3296.00  6.88644e-16
      3298.00  8.83901e-16
      3300.00  8.45302e-16
      3302.00  8.88487e-16
      3304.00  6.89017e-16
      3306.00  7.06116e-16
      3308.00  6.15717e-16
      3310.00  6.11534e-16
      3312.00  6.79528e-16
      3314.00  7.76822e-16
      3316.00  5.13813e-16
      3318.00  6.07090e-16
      3320.00  7.66998e-16
      3322.00  8.08217e-16
      3324.00  7.07196e-16
      3326.00  7.46484e-16
      3328.00  7.52435e-16
      3330.00  6.92558e-16
      3332.00  7.32437e-16
      3334.00  6.83759e-16
      3336.00  6.49472e-16
      3338.00  6.20178e-16
      3340.00  6.49405e-16
      3342.00  5.74480e-16
      3344.00  5.64708e-16
      3346.00  8.78976e-16
      3348.00  6.56996e-16
      3350.00  6.44662e-16
      3352.00  7.04311e-16
      3354.00  7.99541e-16
      3356.00  7.06159e-16
      3358.00  6.33480e-16
      3360.00  7.45466e-16
      3362.00  7.94012e-16
      3364.00  7.34847e-16
      3366.00  6.59123e-16
      3368.00  6.51754e-16
      3370.00  6.08501e-16
      3372.00  7.18239e-16
      3374.00  6.97660e-16
      3376.00  7.61400e-16
      3378.00  7.30565e-16
      3380.00  6.64849e-16
      3382.00  7.61377e-16
      3384.00  6.71457e-16
      3386.00  6.89476e-16
      3388.00  6.44209e-16
      3390.00  5.95189e-16
      3392.00  6.39668e-16
      3394.00  6.14202e-16
      3396.00  7.13163e-16
      3398.00  6.68822e-16
      3400.00  6.22930e-16
      3402.00  7.16375e-16
      3404.00  8.00843e-16
      3406.00  8.29940e-16
      3408.00  8.19142e-16
      3410.00  7.87666e-16
      3412.00  7.91445e-16
      3414.00  9.17953e-16
      3416.00  7.84697e-16
      3418.00  7.07356e-16
      3420.00  6.66837e-16
      3422.00  6.65151e-16
      3424.00  6.96618e-16
      3426.00  6.47117e-16
      3428.00  6.98977e-16
      3430.00  7.72935e-16
      3432.00  7.48180e-16
      3434.00  7.42888e-16
      3436.00  6.51489e-16
      3438.00  6.94407e-16
      3440.00  7.20854e-16
      3442.00  6.01230e-16
      3444.00  6.09728e-16
      3446.00  6.04069e-16
      3448.00  6.44676e-16
      3450.00  5.51950e-16
      3452.00  6.24163e-16
      3454.00  6.83409e-16
      3456.00  5.96411e-16
      3458.00  6.38618e-16
      3460.00  7.22587e-16
      3462.00  6.20615e-16
      3464.00  7.05654e-16
      3466.00  6.40940e-16
      3468.00  6.67315e-16
      3470.00  6.81364e-16
      3472.00  6.40257e-16
      3474.00  7.41359e-16
      3476.00  6.93254e-16
      3478.00  6.30361e-16
      3480.00  8.14967e-16
      3482.00  7.22107e-16
      3484.00  6.90882e-16
      3486.00  6.42321e-16
      3488.00  6.83458e-16
      3490.00  7.08993e-16
      3492.00  6.24632e-16
      3494.00  6.40467e-16
      3496.00  6.11018e-16
      3498.00  5.79945e-16
      3500.00  5.95449e-16
      3502.00  6.40956e-16
      3504.00  6.07644e-16
      3506.00  5.61406e-16
      3508.00  5.37252e-16
      3510.00  5.80741e-16
      3512.00  6.54763e-16
      3514.00  6.03627e-16
      3516.00  6.32645e-16
      3518.00  6.89279e-16
      3520.00  6.60254e-16
      3522.00  6.73871e-16
      3524.00  6.32536e-16
      3526.00  6.75010e-16
      3528.00  6.39788e-16
      3530.00  7.27127e-16
      3532.00  6.93847e-16
      3534.00  6.68066e-16
      3536.00  6.91066e-16
      3538.00  7.45145e-16
      3540.00  7.07238e-16
      3542.00  6.43786e-16
      3544.00  6.83278e-16
      3546.00  7.32798e-16
      3548.00  7.59292e-16
      3550.00  7.45720e-16
      3552.00  7.05675e-16
      3554.00  6.84655e-16
      3556.00  6.96919e-16
      3558.00  6.71417e-16
      3560.00  6.00846e-16
      3562.00  6.20464e-16
      3564.00  6.05293e-16
      3566.00  6.34879e-16
      3568.00  6.24717e-16
      3570.00  6.41068e-16
      3572.00  6.16679e-16
      3574.00  5.73197e-16
      3576.00  5.84381e-16
      3578.00  6.19367e-16
      3580.00  6.18127e-16
      3582.00  6.00058e-16
      3584.00  5.91663e-16
      3586.00  5.94976e-16
      3588.00  5.99302e-16
      3590.00  5.66977e-16
      3592.00  5.73418e-16
      3594.00  6.30050e-16
      3596.00  6.20846e-16
      3598.00  6.21690e-16
      3600.00  6.48493e-16
      3602.00  6.04247e-16
      3604.00  6.59891e-16
      3606.00  6.38780e-16
      3608.00  6.30911e-16
      3610.00  6.57381e-16
      3612.00  6.30585e-16
      3614.00  6.63680e-16
      3616.00  6.53120e-16
      3618.00  6.41117e-16
      3620.00  6.08865e-16
      3622.00  6.06805e-16
      3624.00  6.64224e-16
      3626.00  7.19952e-16
      3628.00  6.76320e-16
      3630.00  6.68114e-16
      3632.00  6.70935e-16
      3634.00  7.01282e-16
      3636.00  6.44000e-16
      3638.00  5.91736e-16
      3640.00  6.48302e-16
      3642.00  6.25992e-16
      3644.00  6.34578e-16
      3646.00  5.83768e-16
      3648.00  5.96974e-16
      3650.00  6.19091e-16
      3652.00  6.06710e-16
      3654.00  6.07768e-16
      3656.00  6.56171e-16
      3658.00  6.25836e-16
      3660.00  5.75104e-16
      3662.00  5.93451e-16
      3664.00  6.19944e-16
      3666.00  6.31417e-16
      3668.00  6.05677e-16
      3670.00  6.62647e-16
      3672.00  6.42529e-16
      3674.00  6.36077e-16
      3676.00  6.46264e-16
      3678.00  6.64066e-16
      3680.00  6.33139e-16
      3682.00  6.42519e-16
      3684.00  6.27421e-16
      3686.00  6.34291e-16
      3688.00  6.37240e-16
      3690.00  6.48181e-16
      3692.00  6.24236e-16
      3694.00  5.63062e-16
      3696.00  6.12248e-16
      3698.00  6.16382e-16
      3700.00  6.47024e-16
      3702.00  6.58587e-16
      3704.00  6.21276e-16
      3706.00  5.69631e-16
      3708.00  5.78919e-16
      3710.00  5.71211e-16
      3712.00  5.95008e-16
      3714.00  5.15635e-16
      3716.00  5.08310e-16
      3718.00  5.31372e-16
      3720.00  5.33764e-16
      3722.00  5.66609e-16
      3724.00  5.62506e-16
      3726.00  5.07310e-16
      3728.00  5.67023e-16
      3730.00  5.33539e-16
      3732.00  4.99939e-16
      3734.00  4.86958e-16
      3736.00  5.14838e-16
      3738.00  5.11586e-16
      3740.00  4.24269e-16
      3742.00  4.80987e-16
      3744.00  4.72085e-16
      3746.00  4.74233e-16
      3748.00  4.79810e-16
      3750.00  4.89219e-16
      3752.00  5.06034e-16
      3754.00  5.12316e-16
      3756.00  4.85037e-16
      3758.00  4.86171e-16
      3760.00  4.92001e-16
      3762.00  4.56221e-16
      3764.00  4.76053e-16
      3766.00  5.13594e-16
      3768.00  5.07876e-16
      3770.00  5.34012e-16
      3772.00  5.10399e-16
      3774.00  5.60153e-16
      3776.00  5.41613e-16
      3778.00  5.33847e-16
      3780.00  5.33990e-16
      3782.00  5.16217e-16
      3784.00  5.24288e-16
      3786.00  5.38554e-16
      3788.00  5.37861e-16
      3790.00  5.25801e-16
      3792.00  5.33802e-16
      3794.00  5.21929e-16
      3796.00  5.31947e-16
      3798.00  5.41255e-16
      3800.00  4.95215e-16
      3802.00  5.34963e-16
      3804.00  5.44517e-16
      3806.00  5.59970e-16
      3808.00  5.74278e-16
      3810.00  5.64326e-16
      3812.00  5.21387e-16
      3814.00  5.28910e-16
      3816.00  5.29266e-16
      3818.00  5.27432e-16
      3820.00  5.29091e-16
      3822.00  5.53955e-16
      3824.00  5.69874e-16
      3826.00  5.67085e-16
      3828.00  5.81556e-16
      3830.00  5.65265e-16
      3832.00  5.53955e-16
      3834.00  5.37979e-16
      3836.00  4.64720e-16
      3838.00  4.92006e-16
      3840.00  5.22211e-16
      3842.00  5.15734e-16
      3844.00  5.44374e-16
      3846.00  5.71877e-16
      3848.00  6.08026e-16
      3850.00  5.89623e-16
      3852.00  5.95614e-16
      3854.00  5.86976e-16
      3856.00  6.80240e-16
      3858.00  8.34576e-16
      3860.00  9.28592e-16
      3862.00  8.69367e-16
      3864.00  6.60546e-16
      3866.00  5.25295e-16
      3868.00  5.24584e-16
      3870.00  5.58524e-16
      3872.00  6.14895e-16
      3874.00  6.92974e-16
      3876.00  6.61152e-16
      3878.00  6.14083e-16
      3880.00  5.71519e-16
      3882.00  5.58883e-16
      3884.00  5.62500e-16
      3886.00  6.15860e-16
      3888.00  6.22387e-16
      3890.00  6.95372e-16
      3892.00  6.94234e-16
      3894.00  6.92960e-16
      3896.00  6.69878e-16
      3898.00  6.86707e-16
      3900.00  6.63220e-16
      3902.00  6.11971e-16
      3904.00  5.87631e-16
      3906.00  5.88487e-16
      3908.00  6.39715e-16
      3910.00  6.95254e-16
      3912.00  7.26729e-16
      3914.00  7.69066e-16
      3916.00  7.92092e-16
      3918.00  7.92674e-16
      3920.00  7.89487e-16
      3922.00  7.23491e-16
      3924.00  7.37231e-16
      3926.00  7.31014e-16
      3928.00  6.67535e-16
      3930.00  5.91591e-16
      3932.00  5.52116e-16
      3934.00  4.68806e-16
      3936.00  5.81113e-16
      3938.00  6.41209e-16
      3940.00  7.13080e-16
      3942.00  7.30666e-16
      3944.00  8.17388e-16
      3946.00  7.99272e-16
      3948.00  8.36465e-16
      3950.00  7.72238e-16
      3952.00  7.40033e-16
      3954.00  7.35213e-16
      3956.00  7.30319e-16
      3958.00  7.21378e-16
      3960.00  7.35529e-16
      3962.00  6.82565e-16
      3964.00  6.88028e-16
      3966.00  6.59598e-16
      3968.00  5.56994e-16
      3970.00  5.37568e-16
      3972.00  5.45919e-16
      3974.00  5.24718e-16
      3976.00  5.69599e-16
      3978.00  6.64184e-16
      3980.00  7.31275e-16
      3982.00  7.86400e-16
      3984.00  7.72930e-16
      3986.00  7.69064e-16
      3988.00  7.84072e-16
      3990.00  8.26682e-16
      3992.00  7.97105e-16
      3994.00  7.91654e-16
      3996.00  7.61053e-16
      3998.00  7.82639e-16
      4000.00  7.80910e-16
      4002.00  7.35595e-16
      4004.00  7.54387e-16
      4006.00  7.90485e-16
      4008.00  7.96825e-16
      4010.00  7.67857e-16
      4012.00  7.19900e-16
      4014.00  7.11040e-16
      4016.00  6.93828e-16
      4018.00  6.90772e-16
      4020.00  6.54326e-16
      4022.00  6.50082e-16
      4024.00  6.29977e-16
      4026.00  5.96520e-16
      4028.00  5.59417e-16
      4030.00  5.95421e-16
      4032.00  6.24942e-16
      4034.00  6.76251e-16
      4036.00  6.91486e-16
      4038.00  7.15193e-16
      4040.00  7.59541e-16
      4042.00  7.25080e-16
      4044.00  7.51530e-16
      4046.00  7.85040e-16
      4048.00  8.54157e-16
      4050.00  8.16317e-16
      4052.00  7.39257e-16
      4054.00  7.51898e-16
      4056.00  7.94424e-16
      4058.00  7.23285e-16
      4060.00  7.12529e-16
      4062.00  7.59594e-16
      4064.00  7.42105e-16
      4066.00  7.05498e-16
      4068.00  6.68163e-16
      4070.00  6.49956e-16
      4072.00  5.96477e-16
      4074.00  5.69130e-16
      4076.00  6.31243e-16
      4078.00  7.23077e-16
      4080.00  7.25291e-16
      4082.00  7.49283e-16
      4084.00  7.70735e-16
      4086.00  7.49822e-16
      4088.00  7.45723e-16
      4090.00  7.39335e-16
      4092.00  7.38171e-16
      4094.00  7.61295e-16
      4096.00  7.41876e-16
      4098.00  6.81820e-16
      4100.00  7.00191e-16
      4102.00  6.33587e-16
      4104.00  6.26849e-16
      4106.00  5.98736e-16
      4108.00  4.75750e-16
      4110.00  4.54986e-16
      4112.00  5.02669e-16
      4114.00  5.38414e-16
      4116.00  5.85362e-16
      4118.00  6.30973e-16
      4120.00  6.64805e-16
      4122.00  6.97280e-16
      4124.00  7.17162e-16
      4126.00  7.24068e-16
      4128.00  7.59065e-16
      4130.00  7.53429e-16
      4132.00  7.58393e-16
      4134.00  7.61164e-16
      4136.00  7.65581e-16
      4138.00  7.38469e-16
      4140.00  7.83514e-16
      4142.00  7.76602e-16
      4144.00  7.70871e-16
      4146.00  7.77809e-16
      4148.00  7.69731e-16
      4150.00  7.69597e-16
      4152.00  7.62359e-16
      4154.00  7.76431e-16
      4156.00  7.84465e-16
      4158.00  8.04985e-16
      4160.00  7.78894e-16
      4162.00  8.00037e-16
      4164.00  7.92474e-16
      4166.00  8.02508e-16
      4168.00  7.40064e-16
      4170.00  7.80196e-16
      4172.00  7.81062e-16
      4174.00  8.02128e-16
      4176.00  7.62849e-16
      4178.00  7.94874e-16
      4180.00  7.76698e-16
      4182.00  8.05011e-16
      4184.00  8.06415e-16
      4186.00  7.82679e-16
      4188.00  8.03669e-16
      4190.00  7.46790e-16
      4192.00  7.74825e-16
      4194.00  7.86076e-16
      4196.00  7.82826e-16
      4198.00  7.32989e-16
      4200.00  7.65490e-16
      4202.00  7.78908e-16
      4204.00  7.77561e-16
      4206.00  7.77884e-16
      4208.00  7.53416e-16
      4210.00  7.59600e-16
      4212.00  7.72007e-16
      4214.00  7.37964e-16
      4216.00  7.45422e-16
      4218.00  7.26581e-16
      4220.00  7.50061e-16
      4222.00  7.05889e-16
      4224.00  7.04237e-16
      4226.00  7.35972e-16
      4228.00  7.72127e-16
      4230.00  7.41638e-16
      4232.00  6.77787e-16
      4234.00  7.05791e-16
      4236.00  7.02547e-16
      4238.00  6.64312e-16
      4240.00  6.49957e-16
      4242.00  6.22209e-16
      4244.00  5.67406e-16
      4246.00  6.20295e-16
      4248.00  6.01958e-16
      4250.00  5.76906e-16
      4252.00  5.67798e-16
      4254.00  6.34840e-16
      4256.00  6.60857e-16
      4258.00  6.64303e-16
      4260.00  7.08340e-16
      4262.00  7.19419e-16
      4264.00  7.00535e-16
      4266.00  6.76984e-16
      4268.00  7.04837e-16
      4270.00  7.37850e-16
      4272.00  7.42489e-16
      4274.00  7.11380e-16
      4276.00  6.87651e-16
      4278.00  6.79099e-16
      4280.00  7.17464e-16
      4282.00  7.39640e-16
      4284.00  7.55645e-16
      4286.00  7.71031e-16
      4288.00  7.34936e-16
      4290.00  6.90965e-16
      4292.00  6.97569e-16
      4294.00  7.47270e-16
      4296.00  7.60364e-16
      4298.00  7.50339e-16
      4300.00  7.13660e-16
      4302.00  7.16139e-16
      4304.00  7.14980e-16
      4306.00  7.19656e-16
      4308.00  7.77062e-16
      4310.00  7.59410e-16
      4312.00  7.58261e-16
      4314.00  7.57446e-16
      4316.00  7.11342e-16
      4318.00  7.49232e-16
      4320.00  7.08632e-16
      4322.00  7.11409e-16
      4324.00  7.15211e-16
      4326.00  7.48506e-16
      4328.00  7.25088e-16
      4330.00  7.39329e-16
      4332.00  7.12917e-16
      4334.00  7.33275e-16
      4336.00  7.17344e-16
      4338.00  7.31935e-16
      4340.00  7.41492e-16
      4342.00  7.54884e-16
      4344.00  7.17915e-16
      4346.00  7.17639e-16
      4348.00  7.30342e-16
      4350.00  7.16912e-16
      4352.00  6.89517e-16
      4354.00  7.13570e-16
      4356.00  7.23853e-16
      4358.00  8.55349e-16
      4360.00  8.22371e-16
      4362.00  7.26732e-16
      4364.00  7.26781e-16
      4366.00  7.21056e-16
      4368.00  7.27669e-16
      4370.00  7.37558e-16
      4372.00  7.33966e-16
      4374.00  7.36607e-16
      4376.00  6.84416e-16
      4378.00  6.70799e-16
      4380.00  7.11836e-16
      4382.00  7.37010e-16
      4384.00  7.03701e-16
      4386.00  7.12555e-16
      4388.00  7.20572e-16
      4390.00  7.10231e-16
      4392.00  7.30494e-16
      4394.00  7.07469e-16
      4396.00  7.16944e-16
      4398.00  7.26338e-16
      4400.00  7.34628e-16
      4402.00  7.01616e-16
      4404.00  7.23640e-16
      4406.00  6.76584e-16
      4408.00  7.23723e-16
      4410.00  7.32933e-16
      4412.00  6.85141e-16
      4414.00  7.37679e-16
      4416.00  7.69599e-16
      4418.00  7.26866e-16
      4420.00  7.06737e-16
      4422.00  7.19704e-16
      4424.00  7.00406e-16
      4426.00  6.87155e-16
      4428.00  6.84810e-16
      4430.00  7.15032e-16
      4432.00  7.29693e-16
      4434.00  6.84702e-16
      4436.00  7.15608e-16
      4438.00  6.87229e-16
      4440.00  6.90066e-16
      4442.00  6.49436e-16
      4444.00  6.61173e-16
      4446.00  6.93238e-16
      4448.00  6.97675e-16
      4450.00  6.78441e-16
      4452.00  6.67041e-16
      4454.00  6.14455e-16
      4456.00  6.33062e-16
      4458.00  6.31168e-16
      4460.00  6.39438e-16
      4462.00  6.47090e-16
      4464.00  6.59205e-16
      4466.00  6.64577e-16
      4468.00  6.67782e-16
      4470.00  7.07640e-16
      4472.00  6.86910e-16
      4474.00  6.80056e-16
      4476.00  6.44526e-16
      4478.00  6.67664e-16
      4480.00  6.45216e-16
      4482.00  6.80440e-16
      4484.00  6.52164e-16
      4486.00  6.63868e-16
      4488.00  6.73719e-16
      4490.00  6.49755e-16
      4492.00  6.85750e-16
      4494.00  7.80175e-16
      4496.00  7.06170e-16
      4498.00  5.93547e-16
      4500.00  5.81120e-16
      4502.00  6.25570e-16
      4504.00  6.27752e-16
      4506.00  6.11192e-16
      4508.00  6.38304e-16
      4510.00  6.65424e-16
      4512.00  6.70966e-16
      4514.00  7.03450e-16
      4516.00  7.10713e-16
      4518.00  7.12322e-16
      4520.00  7.05138e-16
      4522.00  6.89405e-16
      4524.00  7.20378e-16
      4526.00  6.96292e-16
      4528.00  6.31219e-16
      4530.00  6.72642e-16
      4532.00  6.99341e-16
      4534.00  7.28244e-16
      4536.00  6.90131e-16
      4538.00  6.83128e-16
      4540.00  6.33031e-16
      4542.00  6.23417e-16
      4544.00  6.47375e-16
      4546.00  6.78820e-16
      4548.00  6.84534e-16
      4550.00  6.98025e-16
      4552.00  6.89930e-16
      4554.00  7.17642e-16
      4556.00  7.05105e-16
      4558.00  7.11009e-16
      4560.00  6.95312e-16
      4562.00  6.81820e-16
      4564.00  6.57905e-16
      4566.00  6.91904e-16
      4568.00  7.05530e-16
      4570.00  6.97259e-16
      4572.00  6.80381e-16
      4574.00  6.54567e-16
      4576.00  7.24932e-16
      4578.00  7.13659e-16
      4580.00  7.08824e-16
      4582.00  7.22895e-16
      4584.00  7.32769e-16
      4586.00  6.86041e-16
      4588.00  6.91956e-16
      4590.00  7.06986e-16
      4592.00  6.78540e-16
      4594.00  6.71902e-16
      4596.00  6.87391e-16
      4598.00  7.30976e-16
      4600.00  6.88715e-16
      4602.00  7.02968e-16
      4604.00  7.20142e-16
      4606.00  7.05798e-16
      4608.00  6.88642e-16
      4610.00  7.11307e-16
      4612.00  6.96009e-16
      4614.00  7.03168e-16
      4616.00  7.01738e-16
      4618.00  6.92369e-16
      4620.00  7.01717e-16
      4622.00  7.18363e-16
      4624.00  7.16222e-16
      4626.00  6.92345e-16
      4628.00  6.69738e-16
      4630.00  6.59879e-16
      4632.00  7.06923e-16
      4634.00  7.44833e-16
      4636.00  7.23076e-16
      4638.00  7.32263e-16
      4640.00  6.43870e-16
      4642.00  6.97096e-16
      4644.00  7.14943e-16
      4646.00  7.17953e-16
      4648.00  7.00190e-16
      4650.00  7.18427e-16
      4652.00  7.23350e-16
      4654.00  7.08369e-16
      4656.00  6.97398e-16
      4658.00  6.95547e-16
      4660.00  7.40157e-16
      4662.00  7.40323e-16
      4664.00  7.15925e-16
      4666.00  7.67845e-16
      4668.00  7.17284e-16
      4670.00  7.56962e-16
      4672.00  7.32362e-16
      4674.00  6.98946e-16
      4676.00  7.05950e-16
      4678.00  7.31038e-16
      4680.00  7.35642e-16
      4682.00  6.93894e-16
      4684.00  7.21302e-16
      4686.00  7.04717e-16
      4688.00  6.78628e-16
      4690.00  6.66111e-16
      4692.00  6.76457e-16
      4694.00  6.69199e-16
      4696.00  6.77898e-16
      4698.00  7.06209e-16
      4700.00  7.33290e-16
      4702.00  7.20194e-16
      4704.00  6.79520e-16
      4706.00  6.93397e-16
      4708.00  6.82067e-16
      4710.00  6.95367e-16
      4712.00  6.75603e-16
      4714.00  6.66667e-16
      4716.00  6.79741e-16
      4718.00  7.27569e-16
      4720.00  6.93520e-16
      4722.00  7.14004e-16
      4724.00  7.25791e-16
      4726.00  6.97708e-16
      4728.00  6.96734e-16
      4730.00  7.20521e-16
      4732.00  7.04504e-16
      4734.00  6.96389e-16
      4736.00  7.11134e-16
      4738.00  7.10762e-16
      4740.00  7.10185e-16
      4742.00  6.76866e-16
      4744.00  7.06118e-16
      4746.00  6.78198e-16
      4748.00  7.06327e-16
      4750.00  6.75661e-16
      4752.00  6.96578e-16
      4754.00  6.85676e-16
      4756.00  6.85061e-16
      4758.00  7.00399e-16
      4760.00  6.66131e-16
      4762.00  6.81410e-16
      4764.00  6.84466e-16
      4766.00  6.82735e-16
      4768.00  7.11283e-16
      4770.00  7.05184e-16
      4772.00  7.13229e-16
      4774.00  6.86586e-16
      4776.00  6.88086e-16
      4778.00  7.30207e-16
      4780.00  6.88165e-16
      4782.00  6.88441e-16
      4784.00  7.16793e-16
      4786.00  6.81511e-16
      4788.00  7.12278e-16
      4790.00  7.29241e-16
      4792.00  6.87832e-16
      4794.00  6.97266e-16
      4796.00  6.97455e-16
      4798.00  7.31232e-16
      4800.00  7.11569e-16
      4802.00  6.90820e-16
      4804.00  6.71115e-16
      4806.00  6.87593e-16
      4808.00  6.79084e-16
      4810.00  6.67526e-16
      4812.00  6.67961e-16
      4814.00  6.38052e-16
      4816.00  6.64351e-16
      4818.00  6.59280e-16
      4820.00  7.13483e-16
      4822.00  6.81052e-16
      4824.00  7.19201e-16
      4826.00  7.07530e-16
      4828.00  7.17654e-16
      4830.00  6.56409e-16
      4832.00  6.47392e-16
      4834.00  6.53099e-16
      4836.00  6.54366e-16
      4838.00  6.82286e-16
      4840.00  6.68654e-16
      4842.00  6.93915e-16
      4844.00  6.72269e-16
      4846.00  6.64139e-16
      4848.00  6.96126e-16
      4850.00  6.87850e-16
      4852.00  6.93819e-16
      4854.00  6.87042e-16
      4856.00  6.86962e-16
      4858.00  6.75403e-16
      4860.00  6.80514e-16
      4862.00  7.23437e-16
      4864.00  6.86684e-16
      4866.00  6.75776e-16
      4868.00  6.75132e-16
      4870.00  6.68939e-16
      4872.00  6.43732e-16
      4874.00  6.47893e-16
      4876.00  6.25615e-16
      4878.00  6.39322e-16
      4880.00  6.73129e-16
      4882.00  6.84638e-16
      4884.00  6.70598e-16
      4886.00  6.93675e-16
      4888.00  6.94118e-16
      4890.00  6.73550e-16
      4892.00  7.10559e-16
      4894.00  6.56797e-16
      4896.00  6.66210e-16
      4898.00  6.85109e-16
      4900.00  6.57681e-16
      4902.00  6.56561e-16
      4904.00  6.98561e-16
      4906.00  6.62817e-16
      4908.00  6.43900e-16
      4910.00  6.46248e-16
      4912.00  7.14312e-16
      4914.00  7.00958e-16
      4916.00  6.96220e-16
      4918.00  6.46389e-16
      4920.00  6.73360e-16
      4922.00  6.45848e-16
      4924.00  6.86473e-16
      4926.00  6.57841e-16
      4928.00  6.41181e-16
      4930.00  6.63219e-16
      4932.00  6.47470e-16
      4934.00  6.03161e-16
      4936.00  6.68207e-16
      4938.00  6.60366e-16
      4940.00  6.62089e-16
      4942.00  6.49544e-16
      4944.00  6.81149e-16
      4946.00  6.69837e-16
      4948.00  6.46963e-16
      4950.00  6.80710e-16
      4952.00  6.95137e-16
      4954.00  6.68953e-16
      4956.00  6.43583e-16
      4958.00  6.73365e-16
      4960.00  6.69056e-16
      4962.00  6.97941e-16
      4964.00  6.74925e-16
      4966.00  6.97296e-16
      4968.00  6.69785e-16
      4970.00  6.78988e-16
      4972.00  6.59635e-16
      4974.00  6.48425e-16
      4976.00  6.75305e-16
      4978.00  6.62343e-16
      4980.00  6.70178e-16
      4982.00  6.64991e-16
      4984.00  6.43778e-16
      4986.00  6.61828e-16
      4988.00  6.51441e-16
      4990.00  6.53995e-16
      4992.00  6.79676e-16
      4994.00  6.63863e-16
      4996.00  6.61157e-16
      4998.00  6.53072e-16
      5000.00  6.65367e-16
      5002.00  6.45058e-16
      5004.00  6.24395e-16
      5006.00  6.52341e-16
      5008.00  6.51737e-16
      5010.00  6.30623e-16
      5012.00  6.49953e-16
      5014.00  6.42327e-16
      5016.00  6.28206e-16
      5018.00  6.51711e-16
      5020.00  6.15378e-16
      5022.00  6.56631e-16
      5024.00  6.09908e-16
      5026.00  5.98729e-16
      5028.00  6.15497e-16
      5030.00  6.96524e-16
      5032.00  1.02358e-15
      5034.00  1.09681e-15
      5036.00  7.42650e-16
      5038.00  6.11395e-16
      5040.00  5.63747e-16
      5042.00  5.63694e-16
      5044.00  5.60281e-16
      5046.00  5.82198e-16
      5048.00  5.87584e-16
      5050.00  6.09544e-16
      5052.00  5.96912e-16
      5054.00  6.04824e-16
      5056.00  5.87517e-16
      5058.00  6.03065e-16
      5060.00  6.03114e-16
      5062.00  5.86749e-16
      5064.00  6.09179e-16
      5066.00  6.02232e-16
      5068.00  6.36054e-16
      5070.00  6.36233e-16
      5072.00  6.31776e-16
      5074.00  6.40112e-16
      5076.00  6.22810e-16
      5078.00  6.46096e-16
      5080.00  6.24781e-16
      5082.00  6.36941e-16
      5084.00  6.00297e-16
      5086.00  6.24898e-16
      5088.00  6.23481e-16
      5090.00  6.33882e-16
      5092.00  5.99465e-16
      5094.00  5.71775e-16
      5096.00  5.60916e-16
      5098.00  5.93925e-16
      5100.00  6.08718e-16
      5102.00  6.46530e-16
      5104.00  6.29689e-16
      5106.00  6.66413e-16
      5108.00  6.29725e-16
      5110.00  6.18063e-16
      5112.00  6.25214e-16
      5114.00  6.01462e-16
      5116.00  6.35782e-16
      5118.00  6.45149e-16
      5120.00  6.26313e-16
      5122.00  6.63107e-16
      5124.00  6.68532e-16
      5126.00  6.53875e-16
      5128.00  6.61167e-16
      5130.00  6.37343e-16
      5132.00  6.36310e-16
      5134.00  6.64862e-16
      5136.00  6.67946e-16
      5138.00  6.32799e-16
      5140.00  6.44451e-16
      5142.00  6.04082e-16
      5144.00  6.39815e-16
      5146.00  6.46428e-16
      5148.00  6.75789e-16
      5150.00  6.48968e-16
      5152.00  6.52347e-16
      5154.00  6.51341e-16
      5156.00  6.29029e-16
      5158.00  6.07158e-16
      5160.00  5.94266e-16
      5162.00  6.04160e-16
      5164.00  6.16470e-16
      5166.00  6.36698e-16
      5168.00  6.34160e-16
      5170.00  6.13186e-16
      5172.00  6.20935e-16
      5174.00  6.42033e-16
      5176.00  6.10337e-16
      5178.00  6.25607e-16
      5180.00  6.14553e-16
      5182.00  6.58306e-16
      5184.00  6.92049e-16
      5186.00  6.81751e-16
      5188.00  6.27740e-16
      5190.00  6.38028e-16
      5192.00  5.81691e-16
      5194.00  5.94210e-16
      5196.00  6.17616e-16
      5198.00  6.00292e-16
      5200.00  5.91330e-16
      5202.00  6.10212e-16
      5204.00  5.91350e-16
      5206.00  6.49501e-16
      5208.00  6.44367e-16
      5210.00  6.36421e-16
      5212.00  6.40852e-16
      5214.00  6.23028e-16
      5216.00  5.92340e-16
      5218.00  6.20982e-16
      5220.00  5.81999e-16
      5222.00  6.13281e-16
      5224.00  6.35573e-16
      5226.00  6.47405e-16
      5228.00  6.11186e-16
      5230.00  6.01784e-16
      5232.00  6.35105e-16
      5234.00  6.47133e-16
      5236.00  6.03240e-16
      5238.00  6.37793e-16
      5240.00  6.45461e-16
      5242.00  6.26991e-16
      5244.00  6.12691e-16
      5246.00  5.91788e-16
      5248.00  6.14083e-16
      5250.00  6.37340e-16
      5252.00  6.21180e-16
      5254.00  6.45950e-16
      5256.00  6.12170e-16
      5258.00  6.30643e-16
      5260.00  6.09505e-16
      5262.00  5.92445e-16
      5264.00  5.80906e-16
      5266.00  6.14029e-16
      5268.00  6.19840e-16
      5270.00  6.29837e-16
      5272.00  5.95650e-16
      5274.00  6.38476e-16
      5276.00  6.43521e-16
      5278.00  6.08294e-16
      5280.00  6.18309e-16
      5282.00  6.17699e-16
      5284.00  6.14112e-16
      5286.00  6.19286e-16
      5288.00  6.02735e-16
      5290.00  6.01971e-16
      5292.00  5.94621e-16
      5294.00  6.59266e-16
      5296.00  6.32294e-16
      5298.00  6.32299e-16
      5300.00  6.46855e-16
      5302.00  6.23113e-16
      5304.00  6.15990e-16
      5306.00  6.06571e-16
      5308.00  5.77779e-16
      5310.00  5.87555e-16
      5312.00  6.04015e-16
      5314.00  6.04203e-16
      5316.00  6.20518e-16
      5318.00  6.29391e-16
      5320.00  6.29409e-16
      5322.00  6.01763e-16
      5324.00  6.32177e-16
      5326.00  5.95420e-16
      5328.00  5.95047e-16
      5330.00  6.13539e-16
      5332.00  5.86095e-16
      5334.00  6.09758e-16
      5336.00  6.05084e-16
      5338.00  6.44264e-16
      5340.00  6.35361e-16
      5342.00  6.28487e-16
      5344.00  6.14220e-16
      5346.00  6.38749e-16
      5348.00  5.94747e-16
      5350.00  5.95555e-16
      5352.00  5.53086e-16
      5354.00  5.72385e-16
      5356.00  5.81806e-16
      5358.00  5.86398e-16
      5360.00  6.09655e-16
      5362.00  6.09374e-16
      5364.00  6.35324e-16
      5366.00  6.04940e-16
      5368.00  5.72158e-16
      5370.00  5.93532e-16
      5372.00  5.80280e-16
      5374.00  6.28013e-16
      5376.00  6.25323e-16
      5378.00  6.38652e-16
      5380.00  6.22420e-16
      5382.00  6.57206e-16
      5384.00  6.78152e-16
      5386.00  6.50970e-16
      5388.00  6.32016e-16
      5390.00  6.18892e-16
      5392.00  6.10573e-16
      5394.00  6.26149e-16
      5396.00  6.31479e-16
      5398.00  6.31841e-16
      5400.00  5.91654e-16
      5402.00  6.26023e-16
      5404.00  6.60999e-16
      5406.00  6.92329e-16
      5408.00  6.49330e-16
      5410.00  6.07251e-16
      5412.00  6.05517e-16
      5414.00  6.35257e-16
      5416.00  6.58762e-16
      5418.00  6.45990e-16
      5420.00  6.29478e-16
      5422.00  6.19050e-16
      5424.00  6.39065e-16
      5426.00  6.64249e-16
      5428.00  6.45377e-16
      5430.00  6.54403e-16
      5432.00  6.40586e-16
      5434.00  6.17060e-16
      5436.00  6.35319e-16
      5438.00  6.54651e-16
      5440.00  6.50596e-16
      5442.00  6.55228e-16
      5444.00  6.69759e-16
      5446.00  6.64271e-16
      5448.00  6.67917e-16
      5450.00  6.44453e-16
      5452.00  5.98385e-16
      5454.00  6.09468e-16
      5456.00  6.14469e-16
      5458.00  6.91135e-16
      5460.00  6.66729e-16
      5462.00  6.60067e-16
      5464.00  6.28743e-16
      5466.00  6.29698e-16
      5468.00  6.43999e-16
      5470.00  6.60046e-16
      5472.00  6.66816e-16
      5474.00  6.91565e-16
      5476.00  7.02260e-16
      5478.00  6.53569e-16
      5480.00  6.45165e-16
      5482.00  6.32689e-16
      5484.00  6.37153e-16
      5486.00  6.22182e-16
      5488.00  6.46482e-16
      5490.00  6.32120e-16
      5492.00  6.38662e-16
      5494.00  6.55940e-16
      5496.00  6.66335e-16
      5498.00  6.48305e-16
      5500.00  6.60949e-16
      5502.00  6.41122e-16
      5504.00  6.37305e-16
      5506.00  6.24369e-16
      5508.00  6.30100e-16
      5510.00  6.34324e-16
      5512.00  6.51470e-16
      5514.00  6.29651e-16
      5516.00  6.10898e-16
      5518.00  6.11507e-16
      5520.00  6.23353e-16
      5522.00  6.23025e-16
      5524.00  6.52602e-16
      5526.00  6.41392e-16
      5528.00  6.20352e-16
      5530.00  6.25577e-16
      5532.00  6.36557e-16
      5534.00  6.72202e-16
      5536.00  6.42737e-16
      5538.00  6.52612e-16
      5540.00  6.34224e-16
      5542.00  6.46522e-16
      5544.00  6.48443e-16
      5546.00  6.75233e-16
      5548.00  6.63300e-16
      5550.00  6.69973e-16
      5552.00  6.70458e-16
      5554.00  6.62936e-16
      5556.00  6.53561e-16
      5558.00  6.47360e-16
      5560.00  6.37923e-16
      5562.00  6.22647e-16
      5564.00  6.79933e-16
      5566.00  6.83691e-16
      5568.00  6.71146e-16
      5570.00  6.75708e-16
      5572.00  6.72629e-16
      5574.00  6.76777e-16
      5576.00  7.24626e-16
      5578.00  7.17302e-16
      5580.00  6.68012e-16
      5582.00  6.53715e-16
      5584.00  6.69122e-16
      5586.00  6.42866e-16
      5588.00  6.27113e-16
      5590.00  6.62795e-16
      5592.00  6.43886e-16
      5594.00  6.37638e-16
      5596.00  6.33484e-16
      5598.00  6.38913e-16
      5600.00  6.37827e-16
      5602.00  6.14575e-16
      5604.00  6.44102e-16
      5606.00  6.37420e-16
      5608.00  6.60603e-16
      5610.00  6.52518e-16
      5612.00  6.45162e-16
      5614.00  6.40018e-16
      5616.00  6.41687e-16
      5618.00  6.49850e-16
      5620.00  6.42416e-16
      5622.00  6.36183e-16
      5624.00  6.29356e-16
      5626.00  6.30225e-16
      5628.00  6.45315e-16
      5630.00  6.52534e-16
      5632.00  6.46250e-16
      5634.00  6.57577e-16
      5636.00  6.46435e-16
      5638.00  6.31839e-16
      5640.00  6.43482e-16
      5642.00  6.51105e-16
      5644.00  6.50726e-16
      5646.00  6.27745e-16
      5648.00  6.35719e-16
      5650.00  6.45902e-16
      5652.00  6.55717e-16
      5654.00  6.26873e-16
      5656.00  6.49732e-16
      5658.00  6.26723e-16
      5660.00  6.49906e-16
      5662.00  6.57832e-16
      5664.00  6.50029e-16
      5666.00  6.37868e-16
      5668.00  6.30614e-16
      5670.00  6.40698e-16
      5672.00  6.25145e-16
      5674.00  6.31359e-16
      5676.00  6.42504e-16
      5678.00  6.46110e-16
      5680.00  6.53884e-16
      5682.00  6.60951e-16
      5684.00  6.50733e-16
      5686.00  6.43306e-16
      5688.00  6.74193e-16
      5690.00  6.58426e-16
      5692.00  6.53428e-16
      5694.00  6.27756e-16
      5696.00  6.23274e-16
      5698.00  6.17936e-16
      5700.00  6.40149e-16
      5702.00  6.52654e-16
      5704.00  6.45630e-16
      5706.00  6.32625e-16
      5708.00  6.08166e-16
      5710.00  6.31201e-16
      5712.00  6.34331e-16
      5714.00  6.43945e-16
      5716.00  6.48568e-16
      5718.00  6.64200e-16
      5720.00  6.28218e-16
      5722.00  6.36322e-16
      5724.00  6.38686e-16
      5726.00  6.41434e-16
      5728.00  6.51984e-16
      5730.00  6.44712e-16
      5732.00  6.31502e-16
      5734.00  6.26160e-16
      5736.00  6.57248e-16
      5738.00  6.54673e-16
      5740.00  6.74997e-16
      5742.00  6.47697e-16
      5744.00  6.62874e-16
      5746.00  6.85078e-16
      5748.00  6.59439e-16
      5750.00  6.51665e-16
      5752.00  6.55084e-16
      5754.00  6.61620e-16
      5756.00  6.46694e-16
      5758.00  6.67735e-16
      5760.00  6.30193e-16
      5762.00  6.58924e-16
      5764.00  6.52659e-16
      5766.00  6.47437e-16
      5768.00  6.28825e-16
      5770.00  6.35840e-16
      5772.00  6.34976e-16
      5774.00  6.26979e-16
      5776.00  6.36814e-16
      5778.00  6.27189e-16
      5780.00  6.30842e-16
      5782.00  6.33142e-16
      5784.00  6.48597e-16
      5786.00  6.13288e-16
      5788.00  6.27765e-16
      5790.00  6.48877e-16
      5792.00  6.33117e-16
      5794.00  6.41141e-16
      5796.00  6.40101e-16
      5798.00  6.49092e-16
      5800.00  6.44827e-16
      5802.00  6.60144e-16
      5804.00  6.56707e-16
      5806.00  6.94902e-16
      5808.00  6.39946e-16
      5810.00  6.38452e-16
      5812.00  6.19620e-16
      5814.00  6.14756e-16
      5816.00  6.43792e-16
      5818.00  6.57846e-16
      5820.00  6.44097e-16
      5822.00  6.08572e-16
      5824.00  6.35035e-16
      5826.00  6.32902e-16
      5828.00  6.34802e-16
      5830.00  6.27228e-16
      5832.00  6.42086e-16
      5834.00  6.21612e-16
      5836.00  6.41303e-16
      5838.00  6.37089e-16
      5840.00  6.40691e-16
      5842.00  6.55939e-16
      5844.00  6.26708e-16
      5846.00  6.28642e-16
      5848.00  6.18437e-16
      5850.00  6.50562e-16
      5852.00  6.47811e-16
      5854.00  6.50552e-16
      5856.00  6.54069e-16
      5858.00  6.51447e-16
      5860.00  6.47258e-16
      5862.00  6.52440e-16
      5864.00  6.38862e-16
      5866.00  6.18973e-16
      5868.00  6.21748e-16
      5870.00  6.28335e-16
      5872.00  6.47817e-16
      5874.00  6.40508e-16
      5876.00  6.32757e-16
      5878.00  6.32781e-16
      5880.00  6.24070e-16
      5882.00  6.48533e-16
      5884.00  6.39234e-16
      5886.00  6.31817e-16
      5888.00  6.08984e-16
      5890.00  6.08617e-16
      5892.00  6.33365e-16
      5894.00  6.92201e-16
      5896.00  6.46968e-16
      5898.00  6.15450e-16
      5900.00  6.07955e-16
      5902.00  5.86100e-16
      5904.00  6.01850e-16
      5906.00  6.05466e-16
      5908.00  6.10925e-16
      5910.00  6.01764e-16
      5912.00  6.15865e-16
      5914.00  6.31655e-16
      5916.00  6.13758e-16
      5918.00  5.88196e-16
      5920.00  6.27268e-16
      5922.00  6.29307e-16
      5924.00  6.44669e-16
      5926.00  6.58811e-16
      5928.00  6.52922e-16
      5930.00  6.65737e-16
      5932.00  6.47886e-16
      5934.00  6.70224e-16
      5936.00  6.47362e-16
      5938.00  6.37556e-16
      5940.00  6.06818e-16
      5942.00  6.06721e-16
      5944.00  6.02959e-16
      5946.00  6.11416e-16
      5948.00  6.44690e-16
      5950.00  6.33005e-16
      5952.00  6.49556e-16
      5954.00  6.38741e-16
      5956.00  6.48824e-16
      5958.00  6.38250e-16
      5960.00  6.45810e-16
      5962.00  6.58573e-16
      5964.00  6.53906e-16
      5966.00  6.08219e-16
      5968.00  6.21334e-16
      5970.00  6.50826e-16
      5972.00  6.62084e-16
      5974.00  6.66503e-16
      5976.00  6.37519e-16
      5978.00  6.45660e-16
      5980.00  6.58042e-16
      5982.00  6.57288e-16
      5984.00  6.42801e-16
      5986.00  6.09650e-16
      5988.00  6.12932e-16
      5990.00  6.27632e-16
      5992.00  6.35941e-16
      5994.00  6.28124e-16
      5996.00  6.42548e-16
      5998.00  6.44996e-16
      6000.00  6.53882e-16
      6002.00  6.37114e-16
      6004.00  6.42712e-16
      6006.00  6.45195e-16
      6008.00  6.41444e-16
      6010.00  6.55387e-16
      6012.00  6.41510e-16
      6014.00  6.60846e-16
      6016.00  6.51003e-16
      6018.00  6.56526e-16
      6020.00  6.38141e-16
      6022.00  6.46299e-16
      6024.00  6.54706e-16
      6026.00  6.44427e-16
      6028.00  6.67204e-16
      6030.00  6.75500e-16
      6032.00  6.79181e-16
      6034.00  6.64194e-16
      6036.00  6.61138e-16
      6038.00  6.39076e-16
      6040.00  6.46763e-16
      6042.00  6.42778e-16
      6044.00  6.38510e-16
      6046.00  6.50563e-16
      6048.00  6.63025e-16
      6050.00  6.46030e-16
      6052.00  6.37503e-16
      6054.00  6.44450e-16
      6056.00  6.21596e-16
      6058.00  6.29691e-16
      6060.00  6.30306e-16
      6062.00  6.10849e-16
      6064.00  6.04784e-16
      6066.00  6.13490e-16
      6068.00  6.19902e-16
      6070.00  6.34323e-16
      6072.00  6.14400e-16
      6074.00  6.11730e-16
      6076.00  6.25869e-16
      6078.00  6.34430e-16
      6080.00  6.41605e-16
      6082.00  6.63821e-16
      6084.00  6.45115e-16
      6086.00  5.96002e-16
      6088.00  5.71126e-16
      6090.00  5.43963e-16
      6092.00  5.31077e-16
      6094.00  5.23867e-16
      6096.00  5.28329e-16
      6098.00  5.34909e-16
      6100.00  5.55570e-16
      6102.00  5.79516e-16
      6104.00  5.81982e-16
      6106.00  5.88303e-16
      6108.00  6.21269e-16
      6110.00  6.18214e-16
      6112.00  6.00833e-16
      6114.00  6.13342e-16
      6116.00  6.24850e-16
      6118.00  6.11818e-16
      6120.00  6.15325e-16
      6122.00  6.20343e-16
      6124.00  6.11319e-16
      6126.00  5.97383e-16
      6128.00  6.31990e-16
      6130.00  6.24098e-16
      6132.00  6.14509e-16
      6134.00  6.28690e-16
      6136.00  6.23519e-16
      6138.00  6.13918e-16
      6140.00  6.17113e-16
      6142.00  6.21093e-16
      6144.00  6.19359e-16
      6146.00  6.02076e-16
      6148.00  6.14029e-16
      6150.00  6.38018e-16
      6152.00  6.43684e-16
      6154.00  6.32130e-16
      6156.00  6.17217e-16
      6158.00  6.20492e-16
      6160.00  6.32850e-16
      6162.00  6.22234e-16
      6164.00  6.20912e-16
      6166.00  6.18331e-16
      6168.00  6.16685e-16
      6170.00  6.33754e-16
      6172.00  6.28864e-16
      6174.00  6.19891e-16
      6176.00  6.26784e-16
      6178.00  6.47376e-16
      6180.00  6.12974e-16
      6182.00  6.24269e-16
      6184.00  6.35735e-16
      6186.00  6.20354e-16
      6188.00  6.15568e-16
      6190.00  6.30933e-16
      6192.00  6.30466e-16
      6194.00  6.27258e-16
      6196.00  6.14531e-16
      6198.00  6.03074e-16
      6200.00  6.26484e-16
      6202.00  6.16498e-16
      6204.00  6.33753e-16
      6206.00  6.23336e-16
      6208.00  6.28471e-16
      6210.00  6.10342e-16
      6212.00  6.07250e-16
      6214.00  6.19122e-16
      6216.00  6.09280e-16
      6218.00  6.17346e-16
      6220.00  6.23752e-16
      6222.00  6.21972e-16
      6224.00  6.06344e-16
      6226.00  6.03704e-16
      6228.00  6.06700e-16
      6230.00  5.97958e-16
      6232.00  5.95889e-16
      6234.00  6.01532e-16
      6236.00  6.32475e-16
      6238.00  6.09364e-16
      6240.00  6.13711e-16
      6242.00  6.05195e-16
      6244.00  6.18042e-16
      6246.00  6.27698e-16
      6248.00  6.31328e-16
      6250.00  6.26550e-16
      6252.00  6.20583e-16
      6254.00  6.19596e-16
      6256.00  6.12132e-16
      6258.00  6.23953e-16
      6260.00  6.06358e-16
      6262.00  6.40747e-16
      6264.00  6.45800e-16
      6266.00  6.39914e-16
      6268.00  6.20737e-16
      6270.00  6.14625e-16
      6272.00  6.20817e-16
      6274.00  5.98813e-16
      6276.00  6.16385e-16
      6278.00  6.03602e-16
      6280.00  6.05713e-16
      6282.00  6.10005e-16
      6284.00  6.26681e-16
      6286.00  6.40049e-16
      6288.00  6.30638e-16
      6290.00  6.19114e-16
      6292.00  5.87517e-16
      6294.00  6.02888e-16
      6296.00  6.07755e-16
      6298.00  6.19092e-16
      6300.00  6.32377e-16
      6302.00  6.14778e-16
      6304.00  5.97961e-16
      6306.00  5.98495e-16
      6308.00  5.87455e-16
      6310.00  6.05466e-16
      6312.00  6.21261e-16
      6314.00  6.21874e-16
      6316.00  6.18518e-16
      6318.00  5.83365e-16
      6320.00  6.02542e-16
      6322.00  5.93914e-16
      6324.00  6.05465e-16
      6326.00  6.21069e-16
      6328.00  6.27913e-16
      6330.00  6.22562e-16
      6332.00  6.15974e-16
      6334.00  6.26693e-16
      6336.00  6.21903e-16
      6338.00  6.07072e-16
      6340.00  5.99536e-16
      6342.00  6.28634e-16
      6344.00  6.07815e-16
      6346.00  6.12514e-16
      6348.00  6.31588e-16
      6350.00  6.03121e-16
      6352.00  5.96792e-16
      6354.00  5.93581e-16
      6356.00  5.76649e-16
      6358.00  5.69174e-16
      6360.00  6.22552e-16
      6362.00  6.23463e-16
      6364.00  6.22455e-16
      6366.00  6.09203e-16
      6368.00  6.07211e-16
      6370.00  5.96775e-16
      6372.00  5.85191e-16
      6374.00  5.97495e-16
      6376.00  5.84897e-16
      6378.00  5.89451e-16
      6380.00  5.82580e-16
      6382.00  5.70466e-16
      6384.00  5.68124e-16
      6386.00  5.86229e-16
      6388.00  5.81637e-16
      6390.00  5.86251e-16
      6392.00  5.82144e-16
      6394.00  6.05315e-16
      6396.00  6.00002e-16
      6398.00  6.10172e-16
      6400.00  6.06112e-16
      6402.00  6.09572e-16
      6404.00  6.01134e-16
      6406.00  5.85927e-16
      6408.00  5.72506e-16
      6410.00  5.78498e-16
      6412.00  5.71975e-16
      6414.00  5.94446e-16
      6416.00  5.99465e-16
      6418.00  5.81558e-16
      6420.00  5.99142e-16
      6422.00  6.18065e-16
      6424.00  6.10036e-16
      6426.00  5.94429e-16
      6428.00  5.95369e-16
      6430.00  5.97012e-16
      6432.00  5.77580e-16
      6434.00  5.84074e-16
      6436.00  5.89212e-16
      6438.00  5.74760e-16
      6440.00  5.84485e-16
      6442.00  5.83077e-16
      6444.00  5.95040e-16
      6446.00  5.90710e-16
      6448.00  5.79003e-16
      6450.00  5.74438e-16
      6452.00  5.77795e-16
      6454.00  5.73761e-16
      6456.00  5.83193e-16
      6458.00  6.02301e-16
      6460.00  5.84028e-16
      6462.00  5.75474e-16
      6464.00  5.74489e-16
      6466.00  5.70023e-16
      6468.00  5.53857e-16
      6470.00  5.72985e-16
      6472.00  5.73528e-16
      6474.00  5.64168e-16
      6476.00  5.44852e-16
      6478.00  5.67778e-16
      6480.00  5.77248e-16
      6482.00  5.67248e-16
      6484.00  5.68505e-16
      6486.00  5.82015e-16
      6488.00  5.81182e-16
      6490.00  5.83448e-16
      6492.00  5.88760e-16
      6494.00  6.04741e-16
      6496.00  5.93210e-16
      6498.00  5.77569e-16
      6500.00  5.92829e-16
      6502.00  5.71072e-16
      6504.00  5.75032e-16
      6506.00  5.58425e-16
      6508.00  5.70232e-16
      6510.00  5.84335e-16
      6512.00  5.99424e-16
      6514.00  5.82652e-16
      6516.00  5.69520e-16
      6518.00  5.65851e-16
      6520.00  5.84426e-16
      6522.00  6.15081e-16
      6524.00  6.08881e-16
      6526.00  6.12398e-16
      6528.00  5.92958e-16
      6530.00  5.95484e-16
      6532.00  5.87982e-16
      6534.00  5.86028e-16
      6536.00  5.79675e-16
      6538.00  5.75316e-16
      6540.00  5.70515e-16
      6542.00  5.63544e-16
      6544.00  5.70452e-16
      6546.00  5.75361e-16
      6548.00  5.95590e-16
      6550.00  5.80258e-16
      6552.00  6.11096e-16
      6554.00  5.91321e-16
      6556.00  5.88189e-16
      6558.00  5.70965e-16
      6560.00  5.83351e-16
      6562.00  5.69089e-16
      6564.00  5.77465e-16
      6566.00  5.81005e-16
      6568.00  5.84830e-16
      6570.00  5.75882e-16
      6572.00  5.69670e-16
      6574.00  5.94355e-16
      6576.00  5.92863e-16
      6578.00  5.94587e-16
      6580.00  5.95395e-16
      6582.00  5.86657e-16
      6584.00  5.78395e-16
      6586.00  5.77410e-16
      6588.00  5.93228e-16
      6590.00  6.00634e-16
      6592.00  5.93256e-16
      6594.00  5.92362e-16
      6596.00  5.98653e-16
      6598.00  6.02628e-16
      6600.00  6.07016e-16
      6602.00  6.03022e-16
      6604.00  6.00037e-16
      6606.00  6.16279e-16
      6608.00  6.05949e-16
      6610.00  6.07905e-16
      6612.00  5.86023e-16
      6614.00  6.09818e-16
      6616.00  5.95125e-16
      6618.00  5.94768e-16
      6620.00  5.91070e-16
      6622.00  6.04977e-16
      6624.00  6.06493e-16
      6626.00  5.92000e-16
      6628.00  5.94698e-16
      6630.00  5.89493e-16
      6632.00  6.03187e-16
      6634.00  6.00324e-16
      6636.00  6.05213e-16
      6638.00  5.87806e-16
      6640.00  6.00399e-16
      6642.00  6.06463e-16
      6644.00  6.07078e-16
      6646.00  6.01172e-16
      6648.00  5.73808e-16
      6650.00  5.95084e-16
      6652.00  6.05594e-16
      6654.00  6.08224e-16
      6656.00  5.92397e-16
      6658.00  6.04407e-16
      6660.00  6.01053e-16
      6662.00  6.01715e-16
      6664.00  5.98227e-16
      6666.00  5.99558e-16
      6668.00  6.04873e-16
      6670.00  5.98508e-16
      6672.00  6.21818e-16
      6674.00  6.12039e-16
      6676.00  6.02488e-16
      6678.00  5.67101e-16
      6680.00  5.92846e-16
      6682.00  6.05606e-16
      6684.00  5.91824e-16
      6686.00  5.92633e-16
      6688.00  6.01970e-16
      6690.00  5.96683e-16
      6692.00  5.82845e-16
      6694.00  5.86153e-16
      6696.00  5.89195e-16
      6698.00  6.16131e-16
      6700.00  6.07805e-16
      6702.00  6.02906e-16
      6704.00  5.92067e-16
      6706.00  6.02793e-16
      6708.00  5.97156e-16
      6710.00  5.99286e-16
      6712.00  6.01817e-16
      6714.00  5.97553e-16
      6716.00  6.12934e-16
      6718.00  5.92325e-16
      6720.00  5.81811e-16
      6722.00  5.73259e-16
      6724.00  5.66803e-16
      6726.00  5.54245e-16
      6728.00  5.41287e-16
      6730.00  5.61629e-16
      6732.00  5.95927e-16
      6734.00  5.88403e-16
      6736.00  6.04054e-16
      6738.00  6.08484e-16
      6740.00  5.96803e-16
      6742.00  5.95673e-16
      6744.00  6.02776e-16
      6746.00  5.90722e-16
      6748.00  5.89868e-16
      6750.00  5.89166e-16
      6752.00  5.91587e-16
      6754.00  6.04419e-16
      6756.00  5.95397e-16
      6758.00  6.07184e-16
      6760.00  6.04014e-16
      6762.00  5.91340e-16
      6764.00  5.82699e-16
      6766.00  6.05620e-16
      6768.00  6.01150e-16
      6770.00  6.10557e-16
      6772.00  6.22350e-16
      6774.00  6.53982e-16
      6776.00  7.35881e-16
      6778.00  9.41066e-16
      6780.00  1.13945e-15
      6782.00  1.04830e-15
      6784.00  8.48841e-16
      6786.00  7.59185e-16
      6788.00  8.31417e-16
      6790.00  1.06685e-15
      6792.00  1.44417e-15
      6794.00  1.84900e-15
      6796.00  1.91329e-15
      6798.00  1.30958e-15
      6800.00  9.05143e-16
      6802.00  7.77256e-16
      6804.00  6.73727e-16
      6806.00  6.68625e-16
      6808.00  6.77194e-16
      6810.00  7.55718e-16
      6812.00  9.36107e-16
      6814.00  1.44923e-15
      6816.00  1.56873e-15
      6818.00  1.31518e-15
      6820.00  1.08668e-15
      6822.00  8.25206e-16
      6824.00  6.62861e-16
      6826.00  6.28006e-16
      6828.00  6.10000e-16
      6830.00  6.01297e-16
      6832.00  5.84617e-16
      6834.00  5.91516e-16
      6836.00  6.01781e-16
      6838.00  5.98142e-16
      6840.00  5.92312e-16
      6842.00  6.03995e-16
      6844.00  6.11300e-16
      6846.00  6.10049e-16
      6848.00  6.14164e-16
      6850.00  6.05350e-16
      6852.00  5.88851e-16
      6854.00  5.98268e-16
      6856.00  6.04144e-16
      6858.00  6.01876e-16
      6860.00  6.06057e-16
      6862.00  6.10779e-16
      6864.00  5.97580e-16
      6866.00  6.14741e-16
      6868.00  6.01950e-16
      6870.00  5.57962e-16
      6872.00  5.79693e-16
      6874.00  5.84249e-16
      6876.00  5.94591e-16
      6878.00  5.86822e-16
      6880.00  5.80186e-16
      6882.00  6.05818e-16
      6884.00  6.07339e-16
      6886.00  6.07520e-16
      6888.00  5.87538e-16
      6890.00  5.83809e-16
      6892.00  5.92495e-16
      6894.00  5.98387e-16
      6896.00  6.09463e-16
      6898.00  5.85048e-16
      6900.00  6.01309e-16
      6902.00  5.87929e-16
      6904.00  5.91523e-16
      6906.00  5.99036e-16
      6908.00  5.96040e-16
      6910.00  6.07522e-16
      6912.00  6.03573e-16
      6914.00  6.04243e-16
      6916.00  5.95952e-16
      6918.00  5.90250e-16
      6920.00  5.85280e-16
      6922.00  5.97837e-16
      6924.00  6.03825e-16
      6926.00  6.03580e-16
      6928.00  5.95461e-16
      6930.00  5.88802e-16
      6932.00  5.90569e-16
      6934.00  5.81023e-16
      6936.00  5.96714e-16
      6938.00  6.14054e-16
      6940.00  6.10881e-16
      6942.00  5.93923e-16
      6944.00  6.14655e-16
      6946.00  6.24428e-16
      6948.00  6.19049e-16
      6950.00  6.72646e-16
      6952.00  7.82473e-16
      6954.00  9.09882e-16
      6956.00  8.91900e-16
      6958.00  7.26767e-16
      6960.00  6.35833e-16
      6962.00  6.21935e-16
      6964.00  6.70470e-16
      6966.00  7.35071e-16
      6968.00  8.76513e-16
      6970.00  9.43257e-16
      6972.00  8.06883e-16
      6974.00  6.53873e-16
      6976.00  6.16801e-16
      6978.00  6.09197e-16
      6980.00  5.94462e-16
      6982.00  5.81886e-16
      6984.00  5.93450e-16
      6986.00  5.85631e-16
      6988.00  5.84406e-16
      6990.00  5.97477e-16
      6992.00  5.78772e-16
      6994.00  5.94625e-16
      6996.00  6.01726e-16
      6998.00  5.97211e-16
      7000.00  5.91730e-16
      7002.00  6.13902e-16
      7004.00  5.94927e-16
      7006.00  5.62677e-16
      7008.00  5.67662e-16
      7010.00  5.77680e-16
      7012.00  5.83787e-16
      7014.00  5.95615e-16
      7016.00  6.07944e-16
      7018.00  5.79616e-16
      7020.00  5.92599e-16
      7022.00  6.02178e-16
      7024.00  5.83411e-16
      7026.00  5.83651e-16
      7028.00  5.79201e-16
      7030.00  5.93116e-16
      7032.00  5.91545e-16
      7034.00  5.93030e-16
      7036.00  5.78884e-16
      7038.00  5.85428e-16
      7040.00  5.95177e-16
      7042.00  5.88740e-16
      7044.00  5.80278e-16
      7046.00  5.68106e-16
      7048.00  5.79966e-16
      7050.00  5.71826e-16
      7052.00  5.83176e-16
      7054.00  5.80582e-16
      7056.00  5.91320e-16
      7058.00  5.80845e-16
      7060.00  5.89346e-16
      7062.00  6.30795e-16
      7064.00  6.44604e-16
      7066.00  6.30393e-16
      7068.00  5.91874e-16
      7070.00  5.86739e-16
      7072.00  5.81022e-16
      7074.00  6.01077e-16
      7076.00  6.00511e-16
      7078.00  5.93304e-16
      7080.00  5.78284e-16
      7082.00  5.87976e-16
      7084.00  5.71013e-16
      7086.00  5.69607e-16
      7088.00  6.05512e-16
      7090.00  5.87631e-16
      7092.00  5.90061e-16
      7094.00  5.84378e-16
      7096.00  6.01550e-16
      7098.00  5.88993e-16
      7100.00  5.79385e-16
      7102.00  5.82502e-16
      7104.00  5.67980e-16
      7106.00  5.85589e-16
      7108.00  5.95948e-16
      7110.00  5.86984e-16
      7112.00  5.87331e-16
      7114.00  5.93885e-16
      7116.00  5.90823e-16
      7118.00  5.90369e-16
      7120.00  5.82342e-16
      7122.00  5.91461e-16
      7124.00  5.96642e-16
      7126.00  5.83531e-16
      7128.00  5.87910e-16
      7130.00  5.98316e-16
      7132.00  6.07585e-16
      7134.00  6.01774e-16
      7136.00  6.08749e-16
      7138.00  6.05684e-16
      7140.00  5.99249e-16
      7142.00  6.00663e-16
      7144.00  5.93337e-16
      7146.00  6.03117e-16
      7148.00  6.10242e-16
      7150.00  6.19585e-16
      7152.00  5.99092e-16
      7154.00  6.07602e-16
      7156.00  6.12927e-16
      7158.00  5.96552e-16
      7160.00  5.98753e-16
      7162.00  5.95559e-16
      7164.00  5.97665e-16
      7166.00  6.01781e-16
      7168.00  6.03809e-16
      7170.00  5.70572e-16
      7172.00  5.77247e-16
      7174.00  5.72114e-16
      7176.00  5.85672e-16
      7178.00  5.68107e-16
      7180.00  5.66771e-16
      7182.00  6.00398e-16
      7184.00  6.16306e-16
      7186.00  6.12877e-16
      7188.00  5.51348e-16
      7190.00  5.92177e-16
      7192.00  5.88936e-16
      7194.00  5.71546e-16
      7196.00  5.92122e-16
      7198.00  6.05362e-16
      7200.00  5.93373e-16
      7202.00  5.81788e-16
      7204.00  6.06208e-16
      7206.00  5.65148e-16
      7208.00  5.77356e-16
      7210.00  5.79769e-16
      7212.00  5.79726e-16
      7214.00  5.89186e-16
      7216.00  5.99238e-16
      7218.00  5.94864e-16
      7220.00  5.95368e-16
      7222.00  5.92835e-16
      7224.00  5.84320e-16
      7226.00  5.89943e-16
      7228.00  5.85837e-16
      7230.00  6.03885e-16
      7232.00  6.19911e-16
      7234.00  6.09747e-16
      7236.00  5.78187e-16
      7238.00  5.88104e-16
      7240.00  6.29906e-16
      7242.00  5.89345e-16
      7244.00  5.98322e-16
      7246.00  5.85190e-16
      7248.00  5.73274e-16
      7250.00  6.05586e-16
      7252.00  5.85482e-16
      7254.00  5.53406e-16
      7256.00  5.78812e-16
      7258.00  5.90554e-16
      7260.00  5.80415e-16
      7262.00  5.93801e-16
      7264.00  5.83209e-16
      7266.00  5.63451e-16
      7268.00  5.83911e-16
      7270.00  5.95762e-16
      7272.00  6.05250e-16
      7274.00  6.11057e-16
      7276.00  5.89889e-16
      7278.00  5.77992e-16
      7280.00  5.90132e-16
      7282.00  6.10416e-16
      7284.00  6.03387e-16
      7286.00  6.00445e-16
      7288.00  5.90281e-16
      7290.00  5.97390e-16
      7292.00  5.93413e-16
      7294.00  5.91653e-16
      7296.00  5.78323e-16
      7298.00  6.04740e-16
      7300.00  6.24318e-16
      7302.00  6.32364e-16
      7304.00  6.19756e-16
      7306.00  5.86579e-16
      7308.00  5.94787e-16
      7310.00  5.87116e-16
      7312.00  5.65581e-16
      7314.00  5.80736e-16
      7316.00  5.97019e-16
      7318.00  5.75919e-16
      7320.00  5.40876e-16
      7322.00  5.66396e-16
      7324.00  5.86136e-16
      7326.00  5.91226e-16
      7328.00  5.79386e-16
      7330.00  5.94763e-16
      7332.00  5.75745e-16
      7334.00  5.71033e-16
      7336.00  5.57732e-16
      7338.00  5.71085e-16
      7340.00  5.58213e-16
      7342.00  5.49247e-16
      7344.00  5.53587e-16
      7346.00  5.60584e-16
      7348.00  5.62843e-16
      7350.00  5.55411e-16
      7352.00  5.51243e-16
      7354.00  5.49287e-16
      7356.00  5.64957e-16
      7358.00  5.70128e-16
      7360.00  5.72414e-16
      7362.00  5.49623e-16
      7364.00  5.28922e-16
      7366.00  5.49250e-16
      7368.00  5.60083e-16
      7370.00  5.56403e-16
      7372.00  5.40007e-16
      7374.00  5.56694e-16
      7376.00  5.83113e-16
      7378.00  5.64743e-16
      7380.00  5.59706e-16
      7382.00  5.38587e-16
      7384.00  5.41848e-16
      7386.00  4.83397e-16
      7388.00  5.27727e-16
      7390.00  5.88323e-16
      7392.00  5.64111e-16
      7394.00  5.52601e-16
      7396.00  5.54713e-16
      7398.00  5.50450e-16
      7400.00  5.54381e-16
      7402.00  5.56507e-16
      7404.00  5.53961e-16
      7406.00  5.52478e-16
      7408.00  5.63310e-16
      7410.00  5.64449e-16
      7412.00  5.68180e-16
      7414.00  5.68181e-16
      7416.00  5.64597e-16
      7418.00  5.55461e-16
      7420.00  5.57750e-16
      7422.00  5.55283e-16
      7424.00  5.73173e-16
      7426.00  5.66054e-16
      7428.00  5.82037e-16
      7430.00  5.83648e-16
      7432.00  5.74286e-16
      7434.00  5.63688e-16
      7436.00  5.85158e-16
      7438.00  5.81717e-16
      7440.00  5.72181e-16
      7442.00  5.75509e-16
      7444.00  5.93049e-16
      7446.00  5.90405e-16
      7448.00  5.65997e-16
      7450.00  5.76358e-16
      7452.00  5.58670e-16
      7454.00  5.62409e-16
      7456.00  5.64524e-16
      7458.00  5.80225e-16
      7460.00  5.82910e-16
      7462.00  5.71737e-16
      7464.00  5.65275e-16
      7466.00  5.65865e-16
      7468.00  5.76529e-16
      7470.00  5.73080e-16
      7472.00  5.87045e-16
      7474.00  5.78431e-16
      7476.00  5.81083e-16
      7478.00  5.67323e-16
      7480.00  5.68659e-16
      7482.00  5.82546e-16
      7484.00  5.77151e-16
      7486.00  5.80548e-16
      7488.00  5.84379e-16
      7490.00  5.94481e-16
      7492.00  6.00939e-16
      7494.00  5.93598e-16
      7496.00  5.84085e-16
      7498.00  5.78740e-16
      7500.00  5.76792e-16
      7502.00  5.84955e-16
      7504.00  6.01732e-16
      7506.00  6.00352e-16
      7508.00  5.97662e-16
      7510.00  5.83214e-16
      7512.00  5.92766e-16
      7514.00  5.89020e-16
      7516.00  5.88110e-16
      7518.00  5.90430e-16
      7520.00  6.01546e-16
      7522.00  6.04322e-16
      7524.00  5.94390e-16
      7526.00  5.96069e-16
      7528.00  5.82002e-16
      7530.00  6.03566e-16
      7532.00  5.91407e-16
      7534.00  5.92095e-16
      7536.00  5.80026e-16
      7538.00  5.71195e-16
      7540.00  5.78622e-16
      7542.00  5.72851e-16
      7544.00  5.70944e-16
      7546.00  5.46108e-16
      7548.00  5.83431e-16
      7550.00  5.82839e-16
      7552.00  5.92532e-16
      7554.00  5.86160e-16
      7556.00  6.04581e-16
      7558.00  5.96888e-16
      7560.00  5.66727e-16
      7562.00  5.91042e-16
      7564.00  5.94120e-16
      7566.00  6.02792e-16
      7568.00  5.84484e-16
      7570.00  6.06621e-16
      7572.00  5.95909e-16
      7574.00  5.98229e-16
      7576.00  5.90777e-16
      7578.00  5.90415e-16
      7580.00  6.12195e-16
      7582.00  5.85539e-16
      7584.00  5.98655e-16
      7586.00  5.93833e-16
      7588.00  5.98748e-16
      7590.00  6.04914e-16
      7592.00  6.22099e-16
      7594.00  7.01052e-16
      7596.00  6.96183e-16
      7598.00  6.42435e-16
      7600.00  6.36327e-16
      7602.00  6.53758e-16
      7604.00  5.72848e-16
      7606.00  5.68225e-16
      7608.00  5.06630e-16
      7610.00  4.89101e-16
      7612.00  4.91598e-16
      7614.00  4.65075e-16
      7616.00  5.07231e-16
      7618.00  5.30359e-16
      7620.00  6.09250e-16
      7622.00  6.08121e-16
      7624.00  6.31222e-16
      7626.00  5.62561e-16
      7628.00  5.68144e-16
      7630.00  5.75079e-16
      7632.00  5.86597e-16
      7634.00  6.04235e-16
      7636.00  5.84853e-16
      7638.00  6.03174e-16
      7640.00  6.06890e-16
      7642.00  5.70996e-16
      7644.00  5.77906e-16
      7646.00  5.41616e-16
      7648.00  5.81438e-16
      7650.00  5.97129e-16
      7652.00  5.80878e-16
      7654.00  5.97366e-16
      7656.00  5.73308e-16
      7658.00  5.86408e-16
      7660.00  6.08660e-16
      7662.00  5.70363e-16
      7664.00  5.97677e-16
      7666.00  5.82732e-16
      7668.00  5.95385e-16
      7670.00  6.10073e-16
      7672.00  5.86639e-16
      7674.00  5.84148e-16
      7676.00  5.87954e-16
      7678.00  5.81909e-16
      7680.00  5.78966e-16
      7682.00  5.77172e-16
      7684.00  5.73995e-16
      7686.00  5.83528e-16
      7688.00  5.84408e-16
      7690.00  5.97378e-16
      7692.00  5.86262e-16
      7694.00  5.96616e-16
      7696.00  6.10030e-16
      7698.00  6.02345e-16
      7700.00  6.11845e-16
      7702.00  5.89620e-16
      7704.00  5.85124e-16
      7706.00  5.92781e-16
      7708.00  5.85152e-16
      7710.00  5.96731e-16
      7712.00  6.15324e-16
      7714.00  6.03271e-16
      7716.00  6.06157e-16
      7718.00  6.09021e-16
      7720.00  5.97638e-16
      7722.00  5.99179e-16
      7724.00  6.06929e-16
      7726.00  6.07230e-16
      7728.00  5.89866e-16
      7730.00  5.79217e-16
      7732.00  5.96111e-16
      7734.00  6.12652e-16
      7736.00  6.20144e-16
      7738.00  5.97312e-16
      7740.00  5.92415e-16
      7742.00  5.97823e-16
      7744.00  5.96948e-16
      7746.00  6.00667e-16
      7748.00  6.28430e-16
      7750.00  6.26346e-16
      7752.00  5.96940e-16
      7754.00  5.91654e-16
      7756.00  5.92073e-16
      7758.00  6.07534e-16
      7760.00  6.08465e-16
      7762.00  5.84601e-16
      7764.00  6.03175e-16
      7766.00  6.21359e-16
      7768.00  6.36457e-16
      7770.00  6.56095e-16
      7772.00  6.48391e-16
      7774.00  6.37100e-16
      7776.00  6.02878e-16
      7778.00  6.15717e-16
      7780.00  6.20652e-16
      7782.00  6.39590e-16
      7784.00  6.15166e-16
      7786.00  6.11223e-16
      7788.00  6.18615e-16
      7790.00  6.18023e-16
      7792.00  6.22249e-16
      7794.00  6.15660e-16
      7796.00  6.10046e-16
      7798.00  5.98401e-16
      7800.00  6.20924e-16
      7802.00  6.20362e-16
      7804.00  6.14982e-16
      7806.00  6.02664e-16
      7808.00  6.24789e-16
      7810.00  6.34198e-16
      7812.00  6.33573e-16
      7814.00  6.39352e-16
      7816.00  6.26132e-16
      7818.00  6.53902e-16
      7820.00  6.45056e-16
      7822.00  6.32352e-16
      7824.00  5.90466e-16
      7826.00  6.22679e-16
      7828.00  6.12620e-16
      7830.00  6.05757e-16
      7832.00  6.22909e-16
      7834.00  6.26257e-16
      7836.00  5.99630e-16
      7838.00  6.07745e-16
      7840.00  6.23023e-16
      7842.00  6.07845e-16
      7844.00  6.23637e-16
      7846.00  6.08261e-16
      7848.00  6.28963e-16
      7850.00  6.31976e-16
      7852.00  6.18520e-16
      7854.00  5.97509e-16
      7856.00  5.90219e-16
      7858.00  5.94901e-16
      7860.00  6.17393e-16
      7862.00  5.97295e-16
      7864.00  5.76161e-16
      7866.00  6.02665e-16
      7868.00  5.96515e-16
      7870.00  5.97805e-16
      7872.00  5.83040e-16
      7874.00  5.74724e-16
      7876.00  5.80625e-16
      7878.00  6.04529e-16
      7880.00  5.96940e-16
      7882.00  5.65842e-16
      7884.00  5.79470e-16
      7886.00  5.80457e-16
      7888.00  5.84777e-16
      7890.00  5.82137e-16
      7892.00  5.65782e-16
      7894.00  5.84660e-16
      7896.00  5.95885e-16
      7898.00  5.97597e-16
      7900.00  5.85484e-16
      7902.00  5.93750e-16
      7904.00  5.78150e-16
      7906.00  5.70310e-16
      7908.00  5.80887e-16
      7910.00  6.03904e-16
      7912.00  5.99721e-16
      7914.00  5.86098e-16
      7916.00  5.92149e-16
      7918.00  5.78524e-16
      7920.00  5.96588e-16
      7922.00  5.73112e-16
      7924.00  5.63402e-16
      7926.00  5.54768e-16
      7928.00  5.58738e-16
      7930.00  5.65480e-16
      7932.00  5.50526e-16
      7934.00  5.54204e-16
      7936.00  5.33429e-16
      7938.00  5.65103e-16
      7940.00  5.67993e-16
      7942.00  5.81369e-16
      7944.00  5.85133e-16
      7946.00  5.89598e-16
      7948.00  5.96801e-16
      7950.00  5.79263e-16
      7952.00  5.67821e-16
      7954.00  5.61093e-16
      7956.00  5.74176e-16
      7958.00  5.68332e-16
      7960.00  5.63490e-16
      7962.00  5.72274e-16
      7964.00  5.78073e-16
      7966.00  5.49896e-16
      7968.00  5.38597e-16
      7970.00  5.52701e-16
      7972.00  5.46959e-16
      7974.00  5.50407e-16
      7976.00  5.47849e-16
      7978.00  5.81266e-16
      7980.00  5.75957e-16
      7982.00  5.32101e-16
      7984.00  5.46936e-16
      7986.00  5.41910e-16
      7988.00  5.51425e-16
      7990.00  5.63083e-16
      7992.00  5.66696e-16
      7994.00  5.49748e-16
      7996.00  5.52591e-16
      7998.00  5.47769e-16
      8000.00  5.56017e-16
      8002.00  5.55382e-16
      8004.00  5.58867e-16
      8006.00  5.64635e-16
      8008.00  5.59864e-16
      8010.00  5.64716e-16
      8012.00  5.83322e-16
      8014.00  5.66774e-16
      8016.00  5.45210e-16
      8018.00  5.48002e-16
      8020.00  5.63342e-16
      8022.00  5.49353e-16
      8024.00  5.57055e-16
      8026.00  5.60513e-16
      8028.00  5.78288e-16
      8030.00  5.32976e-16
      8032.00  5.52269e-16
      8034.00  5.56293e-16
      8036.00  5.60466e-16
      8038.00  5.52330e-16
      8040.00  5.54443e-16
      8042.00  5.57232e-16
      8044.00  5.42826e-16
      8046.00  5.52850e-16
      8048.00  5.43480e-16
      8050.00  5.56951e-16
      8052.00  5.53884e-16
      8054.00  5.57288e-16
      8056.00  5.49531e-16
      8058.00  5.58228e-16
      8060.00  5.68106e-16
      8062.00  5.63764e-16
      8064.00  5.65941e-16
      8066.00  5.52781e-16
      8068.00  5.63054e-16
      8070.00  5.57203e-16
      8072.00  5.64669e-16
      8074.00  5.57977e-16
      8076.00  5.61974e-16
      8078.00  5.56125e-16
      8080.00  5.57596e-16
      8082.00  5.60564e-16
      8084.00  5.70928e-16
      8086.00  5.68264e-16
      8088.00  5.66599e-16
      8090.00  5.91709e-16
      8092.00  5.81874e-16
      8094.00  5.77327e-16
      8096.00  5.52555e-16
      8098.00  5.48844e-16
      8100.00  5.70092e-16
      8102.00  5.61040e-16
      8104.00  5.60373e-16
      8106.00  5.59161e-16
      8108.00  5.53502e-16
      8110.00  5.46939e-16
      8112.00  5.56865e-16
      8114.00  5.54354e-16
      8116.00  5.43931e-16
      8118.00  5.78379e-16
      8120.00  5.67970e-16
      8122.00  5.52563e-16
      8124.00  5.47614e-16
      8126.00  5.52335e-16
      8128.00  5.49952e-16
      8130.00  5.71951e-16
      8132.00  5.53523e-16
      8134.00  5.37450e-16
      8136.00  5.27792e-16
      8138.00  5.49966e-16
      8140.00  5.84628e-16
      8142.00  5.58580e-16
      8144.00  5.46394e-16
      8146.00  5.54250e-16
      8148.00  5.52997e-16
      8150.00  5.33746e-16
      8152.00  5.53128e-16
      8154.00  5.56109e-16
      8156.00  5.21567e-16
      8158.00  5.50429e-16
      8160.00  5.62938e-16
      8162.00  5.68537e-16
      8164.00  5.27773e-16
      8166.00  5.19117e-16
      8168.00  5.60680e-16
      8170.00  5.55069e-16
      8172.00  5.28805e-16
      8174.00  5.54587e-16
      8176.00  5.87847e-16
      8178.00  5.53449e-16
      8180.00  5.17176e-16
      8182.00  5.48503e-16
      8184.00  5.25743e-16
      8186.00  5.47189e-16
      8188.00  5.54046e-16
      8190.00  5.49508e-16
      8192.00  5.43737e-16
      8194.00  5.42697e-16
      8196.00  5.51286e-16
      8198.00  5.46877e-16
      8200.00  5.15350e-16
      8202.00  5.16379e-16
      8204.00  5.29680e-16
      8206.00  5.30605e-16
      8208.00  5.49375e-16
      8210.00  5.40906e-16
      8212.00  5.21854e-16
      8214.00  5.16733e-16
      8216.00  5.37006e-16
      8218.00  5.49434e-16
      8220.00  5.28428e-16
      8222.00  5.26810e-16
      8224.00  5.28549e-16
      8226.00  5.68056e-16
      8228.00  5.51483e-16
      8230.00  5.13407e-16
      8232.00  5.14341e-16
      8234.00  5.10738e-16
      8236.00  5.18540e-16
      8238.00  5.20329e-16
      8240.00  5.48076e-16
      8242.00  5.54118e-16
      8244.00  5.42612e-16
      8246.00  5.38598e-16
      8248.00  5.42254e-16
      8250.00  5.57300e-16
      8252.00  5.49081e-16
      8254.00  5.36018e-16
      8256.00  5.41682e-16
      8258.00  5.65970e-16
      8260.00  5.42962e-16
      8262.00  5.53255e-16
      8264.00  5.44910e-16
      8266.00  5.43215e-16
      8268.00  5.42117e-16
      8270.00  5.47063e-16
      8272.00  5.63610e-16
      8274.00  5.58149e-16
      8276.00  5.22674e-16
      8278.00  5.45796e-16
      8280.00  5.59427e-16
      8282.00  5.33771e-16
      8284.00  5.39402e-16
      8286.00  5.73251e-16
      8288.00  5.59460e-16
      8290.00  5.14236e-16
      8292.00  5.36128e-16
      8294.00  5.56996e-16
      8296.00  5.32940e-16
      8298.00  5.77550e-16
      8300.00  5.70555e-16
      8302.00  5.61859e-16
      8304.00  5.53997e-16
      8306.00  5.37194e-16
      8308.00  5.43842e-16
      8310.00  5.66765e-16
      8312.00  5.46013e-16
      8314.00  5.26288e-16
      8316.00  5.60915e-16
      8318.00  5.58768e-16
      8320.00  5.67267e-16
      8322.00  5.43787e-16
      8324.00  5.35056e-16
      8326.00  5.59480e-16
      8328.00  5.61167e-16
      8330.00  5.52166e-16
      8332.00  5.32617e-16
      8334.00  5.41271e-16
      8336.00  5.27703e-16
      8338.00  5.45130e-16
      8340.00  5.60329e-16
      8342.00  5.92598e-16
      8344.00  5.54391e-16
      8346.00  5.58294e-16
      8348.00  5.59414e-16
      8350.00  5.22081e-16
      8352.00  5.31434e-16
      8354.00  5.24786e-16
      8356.00  5.38305e-16
      8358.00  5.40203e-16
      8360.00  5.46666e-16
      8362.00  5.49631e-16
      8364.00  5.49188e-16
      8366.00  5.28756e-16
      8368.00  5.16138e-16
      8370.00  5.37909e-16
      8372.00  5.39648e-16
      8374.00  5.55538e-16
      8376.00  5.41535e-16
      8378.00  5.26298e-16
      8380.00  5.30527e-16
      8382.00  5.22916e-16
      8384.00  5.21833e-16
      8386.00  5.44858e-16
      8388.00  5.34908e-16
      8390.00  5.38781e-16
      8392.00  5.45433e-16
      8394.00  5.34399e-16
      8396.00  5.73869e-16
      8398.00  5.53536e-16
      8400.00  5.21351e-16
      8402.00  4.98579e-16
      8404.00  5.05066e-16
      8406.00  5.12655e-16
      8408.00  5.40703e-16
      8410.00  5.36579e-16
      8412.00  5.06739e-16
      8414.00  5.30534e-16
      8416.00  5.07449e-16
      8418.00  4.94719e-16
      8420.00  4.96976e-16
      8422.00  5.01284e-16
      8424.00  5.03481e-16
      8426.00  5.37852e-16
      8428.00  5.77090e-16
      8430.00  5.09007e-16
      8432.00  5.08932e-16
      8434.00  4.87945e-16
      8436.00  5.10218e-16
      8438.00  5.04275e-16
      8440.00  5.15260e-16
      8442.00  5.17546e-16
      8444.00  5.18111e-16
      8446.00  5.17975e-16
      8448.00  5.10634e-16
      8450.00  5.13788e-16
      8452.00  5.04812e-16
      8454.00  5.10988e-16
      8456.00  4.96625e-16
      8458.00  5.19614e-16
      8460.00  5.11748e-16
      8462.00  5.37217e-16
      8464.00  5.34928e-16
      8466.00  5.28578e-16
      8468.00  5.17765e-16
      8470.00  4.94697e-16
      8472.00  5.09050e-16
      8474.00  4.94197e-16
      8476.00  4.87936e-16
      8478.00  5.06702e-16
      8480.00  5.15026e-16
      8482.00  5.11885e-16
      8484.00  4.98860e-16
      8486.00  4.83127e-16
      8488.00  4.82463e-16
      8490.00  5.02517e-16
      8492.00  4.89482e-16
      8494.00  5.09198e-16
      8496.00  4.99636e-16
      8498.00  4.87752e-16
      8500.00  5.01986e-16
      8502.00  5.04347e-16
      8504.00  4.85483e-16
      8506.00  4.73726e-16
      8508.00  4.94645e-16
      8510.00  4.97509e-16
      8512.00  4.92975e-16
      8514.00  4.86341e-16
      8516.00  4.93613e-16
      8518.00  5.00230e-16
      8520.00  5.07649e-16
      8522.00  5.11281e-16
      8524.00  5.02603e-16
      8526.00  4.94848e-16
      8528.00  5.12655e-16
      8530.00  5.00383e-16
      8532.00  4.94197e-16
      8534.00  5.06583e-16
      8536.00  5.09456e-16
      8538.00  4.93529e-16
      8540.00  4.93990e-16
      8542.00  4.92944e-16
      8544.00  4.88256e-16
      8546.00  4.83261e-16
      8548.00  4.87459e-16
      8550.00  4.87467e-16
      8552.00  4.93940e-16
      8554.00  5.05582e-16
      8556.00  4.90152e-16
      8558.00  4.90921e-16
      8560.00  4.96996e-16
      8562.00  4.96340e-16
      8564.00  5.02136e-16
      8566.00  4.79459e-16
      8568.00  4.86423e-16
      8570.00  4.86307e-16
      8572.00  4.78262e-16
      8574.00  4.94561e-16
      8576.00  4.85625e-16
      8578.00  4.84978e-16
      8580.00  4.91524e-16
      8582.00  4.72788e-16
      8584.00  4.80250e-16
      8586.00  4.86870e-16
      8588.00  4.83018e-16
      8590.00  4.69936e-16
      8592.00  4.75628e-16
      8594.00  4.70828e-16
      8596.00  4.85794e-16
      8598.00  4.77580e-16
      8600.00  4.61298e-16
      8602.00  4.50076e-16
      8604.00  4.66944e-16
      8606.00  4.70917e-16
      8608.00  4.70922e-16
      8610.00  4.69613e-16
      8612.00  4.67089e-16
      8614.00  4.65051e-16
      8616.00  4.88801e-16
      8618.00  4.85689e-16
      8620.00  4.64094e-16
      8622.00  4.57900e-16
      8624.00  4.68964e-16
      8626.00  4.56181e-16
      8628.00  4.49231e-16
      8630.00  4.76587e-16
      8632.00  4.57345e-16
      8634.00  4.52761e-16
      8636.00  4.70330e-16
      8638.00  4.69257e-16
      8640.00  4.56433e-16
      8642.00  4.50706e-16
      8644.00  4.65400e-16
      8646.00  4.69360e-16
      8648.00  4.68492e-16
      8650.00  4.87050e-16
      8652.00  4.78417e-16
      8654.00  4.70903e-16
      8656.00  4.83163e-16
      8658.00  4.75517e-16
      8660.00  4.62605e-16
      8662.00  4.56491e-16
      8664.00  4.62511e-16
      8666.00  4.65636e-16
      8668.00  4.63220e-16
      8670.00  4.54637e-16
      8672.00  4.70038e-16
      8674.00  4.71546e-16
      8676.00  4.49341e-16
      8678.00  4.51990e-16
      8680.00  4.42035e-16
      8682.00  4.57666e-16
      8684.00  4.44989e-16
      8686.00  4.44723e-16
      8688.00  4.57061e-16
      8690.00  4.64386e-16
      8692.00  4.76439e-16
      8694.00  4.71403e-16
      8696.00  4.47716e-16
      8698.00  4.56776e-16
      8700.00  4.52935e-16
      8702.00  4.59478e-16
      8704.00  4.58277e-16
      8706.00  4.66495e-16
      8708.00  4.63859e-16
      8710.00  4.64338e-16
      8712.00  4.60406e-16
      8714.00  4.51825e-16
      8716.00  4.59112e-16
      8718.00  4.34868e-16
      8720.00  4.64984e-16
      8722.00  4.55773e-16
      8724.00  4.50822e-16
      8726.00  4.51748e-16
      8728.00  4.55987e-16
      8730.00  4.63273e-16
      8732.00  4.54106e-16
      8734.00  4.41480e-16
      8736.00  4.32103e-16
      8738.00  4.34797e-16
      8740.00  4.28399e-16
      8742.00  4.45106e-16
      8744.00  4.51692e-16
      8746.00  4.50876e-16
      8748.00  4.67173e-16
      8750.00  4.57956e-16
      8752.00  4.46886e-16
      8754.00  4.39207e-16
      8756.00  4.64856e-16
      8758.00  4.55107e-16
      8760.00  4.52732e-16
      8762.00  4.57372e-16
      8764.00  4.51644e-16
      8766.00  4.42160e-16
      8768.00  4.04282e-16
      8770.00  4.19465e-16
      8772.00  4.24614e-16
      8774.00  4.59590e-16
      8776.00  4.75153e-16
      8778.00  4.70132e-16
      8780.00  4.42129e-16
      8782.00  4.44927e-16
      8784.00  4.51418e-16
      8786.00  4.57252e-16
      8788.00  4.49720e-16
      8790.00  4.53754e-16
      8792.00  4.44054e-16
      8794.00  4.19917e-16
      8796.00  4.22152e-16
      8798.00  3.78827e-16
      8800.00  3.70422e-16
      8802.00  3.85325e-16
      8804.00  4.17859e-16
      8806.00  4.30029e-16
      8808.00  4.37098e-16
      8810.00  4.56745e-16
      8812.00  4.54639e-16
      8814.00  4.43573e-16
      8816.00  4.29488e-16
      8818.00  4.39121e-16
      8820.00  4.25317e-16
      8822.00  4.47978e-16
      8824.00  4.84388e-16
      8826.00  4.47568e-16
      8828.00  4.23797e-16
      8830.00  4.28615e-16
      8832.00  4.24143e-16
      8834.00  4.30188e-16
      8836.00  4.35003e-16
      8838.00  4.15687e-16
      8840.00  3.86316e-16
      8842.00  3.50922e-16
      8844.00  3.26169e-16
      8846.00  3.24048e-16
      8848.00  3.59018e-16
      8850.00  3.80214e-16
      8852.00  3.87767e-16
      8854.00  4.08544e-16
      8856.00  4.18088e-16
      8858.00  4.23667e-16
      8860.00  4.26274e-16
      8862.00  4.40100e-16
      8864.00  4.45455e-16
      8866.00  4.51529e-16
      8868.00  4.38020e-16
      8870.00  4.24419e-16
      8872.00  4.25481e-16
      8874.00  4.45380e-16
      8876.00  4.48558e-16
      8878.00  4.42162e-16
      8880.00  4.38246e-16
      8882.00  4.75889e-16
      8884.00  4.80996e-16
      8886.00  4.33406e-16
      8888.00  4.37845e-16
      8890.00  4.31276e-16
      8892.00  4.43603e-16
      8894.00  4.48750e-16
      8896.00  4.42396e-16
      8898.00  4.39620e-16
      8900.00  4.62221e-16
      8902.00  4.53103e-16
      8904.00  4.58781e-16
      8906.00  4.31878e-16
      8908.00  4.27757e-16
      8910.00  4.30710e-16
      8912.00  4.37735e-16
      8914.00  4.42670e-16
      8916.00  4.84656e-16
      8918.00  4.72944e-16
      8920.00  4.40179e-16
      8922.00  4.43228e-16
      8924.00  4.43895e-16
      8926.00  4.60209e-16
      8928.00  4.59567e-16
      8930.00  4.55129e-16
      8932.00  4.48896e-16
      8934.00  4.56526e-16
      8936.00  4.38874e-16
      8938.00  4.58379e-16
      8940.00  4.80632e-16
      8942.00  4.69392e-16
      8944.00  4.58154e-16
      8946.00  4.52326e-16
      8948.00  4.47449e-16
      8950.00  4.50549e-16
      8952.00  4.60890e-16
      8954.00  4.61436e-16
      8956.00  4.62213e-16
      8958.00  4.41644e-16
      8960.00  4.52932e-16
      8962.00  4.32288e-16
      8964.00  3.99015e-16
      8966.00  3.80302e-16
      8968.00  3.39764e-16
      8970.00  3.48368e-16
      8972.00  3.63366e-16
      8974.00  3.79515e-16
      8976.00  4.01810e-16
      8978.00  4.35938e-16
      8980.00  4.41664e-16
      8982.00  4.06450e-16
      8984.00  4.31738e-16
      8986.00  5.24458e-16
      8988.00  4.71297e-16
      8990.00  4.07149e-16
      8992.00  4.26496e-16
      8994.00  4.38474e-16
      8996.00  4.74172e-16
      8998.00  5.08097e-16
      9000.00  5.36362e-16
      9002.00  5.01571e-16
      9004.00  4.81628e-16
      9006.00  4.95251e-16
      9008.00  5.40923e-16
      9010.00  6.07992e-16
      9012.00  6.94108e-16
      9014.00  6.96320e-16
      9016.00  6.54720e-16
      9018.00  5.34156e-16
      9020.00  5.07691e-16
      9022.00  4.90945e-16
      9024.00  4.76937e-16
      9026.00  4.68389e-16
      9028.00  4.45289e-16
      9030.00  4.69491e-16
      9032.00  4.76406e-16
      9034.00  4.58069e-16
      9036.00  4.70422e-16
      9038.00  4.79947e-16
      9040.00  4.64033e-16
      9042.00  4.53411e-16
      9044.00  4.34061e-16
      9046.00  4.53372e-16
      9048.00  4.60770e-16
      9050.00  4.38722e-16
      9052.00  4.40897e-16
      9054.00  4.39425e-16
      9056.00  4.44727e-16
      9058.00  4.66273e-16
      9060.00  4.89653e-16
      9062.00  4.97740e-16
      9064.00  4.65601e-16
      9066.00  4.56047e-16
      9068.00  4.61909e-16
      9070.00  4.68219e-16
      9072.00  4.55245e-16
      9074.00  4.34598e-16
      9076.00  4.41560e-16
      9078.00  4.81802e-16
      9080.00  4.65379e-16
      9082.00  4.30385e-16
      9084.00  4.53220e-16
      9086.00  4.59865e-16
      9088.00  4.56826e-16
      9090.00  4.55321e-16
      9092.00  4.68645e-16
      9094.00  4.62633e-16
      9096.00  4.61477e-16
      9098.00  4.88994e-16
      9100.00  4.50569e-16
      9102.00  4.39328e-16
      9104.00  4.61000e-16
      9106.00  4.65073e-16
      9108.00  4.33221e-16
      9110.00  4.32811e-16
      9112.00  4.49928e-16
      9114.00  4.62919e-16
      9116.00  4.85581e-16
      9118.00  4.43402e-16
      9120.00  4.03379e-16
      9122.00  4.30410e-16
      9124.00  4.50253e-16
      9126.00  4.63174e-16
      9128.00  4.94971e-16
      9130.00  4.76066e-16
      9132.00  4.45488e-16
      9134.00  4.79471e-16
      9136.00  4.55768e-16
      9138.00  4.08808e-16
      9140.00  4.45729e-16
      9142.00  4.74845e-16
      9144.00  4.61997e-16
      9146.00  4.44122e-16
      9148.00  4.59770e-16
      9150.00  4.76817e-16
      9152.00  4.61009e-16
      9154.00  4.47387e-16
      9156.00  4.43751e-16
      9158.00  4.44262e-16
      9160.00  4.68337e-16
      9162.00  4.49678e-16
      9164.00  4.43245e-16
      9166.00  4.55912e-16
      9168.00  4.54041e-16
      9170.00  4.49883e-16
      9172.00  4.55001e-16
      9174.00  4.64590e-16
      9176.00  4.09535e-16
      9178.00  3.96966e-16
      9180.00  4.00667e-16
      9182.00  4.09035e-16
      9184.00  4.29574e-16
      9186.00  4.07918e-16
      9188.00  4.18883e-16
      9190.00  4.26843e-16
      9192.00  4.49615e-16
      9194.00  4.47454e-16
      9196.00  4.39714e-16
      9198.00  4.24088e-16
      9200.00  4.43331e-16
      9202.00  4.52856e-16
      9204.00  4.66941e-16
      9206.00  4.83888e-16
      9208.00  4.90555e-16
      9210.00  4.97918e-16
      9212.00  4.98187e-16
      9214.00  4.89704e-16
      9216.00  4.77385e-16
      9218.00  4.75880e-16
      9220.00  4.81654e-16
      9222.00  5.37665e-16
      9224.00  6.13952e-16
      9226.00  6.95935e-16
      9228.00  7.07249e-16
      9230.00  6.04095e-16
      9232.00  5.26659e-16
      9234.00  4.92723e-16
      9236.00  4.65494e-16
      9238.00  4.48656e-16
      9240.00  4.42728e-16
      9242.00  4.47197e-16
      9244.00  4.28517e-16
      9246.00  4.34889e-16
      9248.00  4.40746e-16
      9250.00  4.37312e-16
      9252.00  4.30380e-16
      9254.00  4.33154e-16
      9256.00  4.21418e-16
      9258.00  4.28416e-16
      9260.00  4.50626e-16
      9262.00  4.22730e-16
      9264.00  4.19372e-16
      9266.00  4.24231e-16
      9268.00  4.36633e-16
      9270.00  4.31987e-16
      9272.00  4.31867e-16
      9274.00  4.24398e-16
      9276.00  4.38035e-16
      9278.00  4.49663e-16
      9280.00  4.10894e-16
      9282.00  4.21157e-16
      9284.00  4.59833e-16
      9286.00  4.33737e-16
      9288.00  4.09619e-16
      9290.00  4.12781e-16
      9292.00  4.28025e-16
      9294.00  4.39178e-16
      9296.00  4.14120e-16
      9298.00  4.22786e-16
      9300.00  4.61034e-16
      9302.00  4.22294e-16
      9304.00  4.43314e-16
      9306.00  4.42587e-16
      9308.00  4.39752e-16
      9310.00  4.10090e-16
      9312.00  4.28133e-16
      9314.00  4.44713e-16
      9316.00  4.37942e-16
      9318.00  3.65446e-16
      9320.00  4.16277e-16
      9322.00  4.85101e-16
      9324.00  4.55506e-16
      9326.00  3.26688e-16
      9328.00  3.32860e-16
      9330.00  3.74650e-16
      9332.00  4.28480e-16
      9334.00  4.38950e-16
      9336.00  3.73513e-16
      9338.00  3.32762e-16
      9340.00  3.47625e-16
      9342.00  4.67586e-16
      9344.00  5.10207e-16
      9346.00  3.46076e-16
      9348.00  3.36393e-16
      9350.00  3.98573e-16
      9352.00  4.77901e-16
      9354.00  4.72346e-16
      9356.00  4.09774e-16
      9358.00  4.12437e-16
      9360.00  3.56120e-16
      9362.00  3.62595e-16
      9364.00  4.26205e-16
      9366.00  4.19743e-16
      9368.00  4.21090e-16
      9370.00  4.35259e-16
      9372.00  3.79541e-16
      9374.00  4.54007e-16
      9376.00  4.21712e-16
      9378.00  4.22203e-16
      9380.00  3.39994e-16
      9382.00  3.09021e-16
      9384.00  3.80643e-16
      9386.00  4.41246e-16
      9388.00  4.52479e-16
      9390.00  5.11521e-16
      9392.00  5.22944e-16
      9394.00  4.58404e-16
      9396.00  4.28639e-16
      9398.00  4.32328e-16
      9400.00  4.26198e-16
      9402.00  4.05214e-16
      9404.00  3.83400e-16
      9406.00  3.72556e-16
      9408.00  4.21261e-16
      9410.00  3.97910e-16
      9412.00  3.53279e-16
      9414.00  3.52552e-16
      9416.00  3.91193e-16
      9418.00  4.34576e-16
      9420.00  3.99146e-16
      9422.00  3.91131e-16
      9424.00  3.80721e-16
      9426.00  4.95395e-16
      9428.00  4.78390e-16
      9430.00  3.66400e-16
      9432.00  3.34708e-16
      9434.00  3.84783e-16
      9436.00  4.44498e-16
      9438.00  4.78313e-16
      9440.00  4.59610e-16
      9442.00  3.33631e-16
      9444.00  3.38956e-16
      9446.00  3.68959e-16
      9448.00  4.05549e-16
      9450.00  4.16208e-16
      9452.00  4.23206e-16
      9454.00  4.88905e-16
      9456.00  4.52886e-16
      9458.00  4.11865e-16
      9460.00  4.14919e-16
      9462.00  3.44623e-16
      9464.00  3.64893e-16
      9466.00  3.90491e-16
      9468.00  3.96856e-16
      9470.00  3.65698e-16
      9472.00  3.67186e-16
      9474.00  4.53417e-16
      9476.00  4.37488e-16
      9478.00  4.00306e-16
      9480.00  4.54587e-16
      9482.00  3.84880e-16
      9484.00  3.60712e-16
      9486.00  3.88898e-16
      9488.00  3.64400e-16
      9490.00  3.88428e-16
      9492.00  4.18686e-16
      9494.00  4.34265e-16
      9496.00  3.79328e-16
      9498.00  3.99480e-16
      9500.00  3.88475e-16
      9502.00  3.73205e-16
      9504.00  3.55106e-16
      9506.00  3.66483e-16
      9508.00  3.89662e-16
      9510.00  3.96205e-16
      9512.00  4.25877e-16
      9514.00  4.49605e-16
      9516.00  4.94201e-16
      9518.00  4.44724e-16
      9520.00  4.40781e-16
      9522.00  4.43157e-16
      9524.00  4.28851e-16
      9526.00  4.23365e-16
      9528.00  4.21440e-16
      9530.00  3.80069e-16
      9532.00  3.78663e-16
      9534.00  4.30975e-16
      9536.00  4.27109e-16
      9538.00  4.39413e-16
      9540.00  4.73600e-16
      9542.00  5.49858e-16
      9544.00  5.91086e-16
      9546.00  4.81716e-16
      9548.00  4.38656e-16
      9550.00  4.45493e-16
      9552.00  4.38861e-16
      9554.00  3.98793e-16
      9556.00  3.95426e-16
      9558.00  3.55278e-16
      9560.00  3.52269e-16
      9562.00  4.05898e-16
      9564.00  4.30945e-16
      9566.00  4.29256e-16
      9568.00  3.64170e-16
      9570.00  3.48975e-16
      9572.00  3.51120e-16
      9574.00  3.75654e-16
      9576.00  3.78493e-16
      9578.00  4.03692e-16
      9580.00  4.19246e-16
      9582.00  3.57243e-16
      9584.00  3.40266e-16
      9586.00  3.75769e-16
      9588.00  3.95920e-16
      9590.00  3.65837e-16
      9592.00  3.51340e-16
      9594.00  3.38497e-16
      9596.00  3.77663e-16
      9598.00  3.73973e-16
      9600.00  3.66663e-16
      9602.00  3.78002e-16
      9604.00  4.09266e-16
      9606.00  4.10533e-16
      9608.00  3.73307e-16
      9610.00  3.99652e-16
      9612.00  3.83984e-16
      9614.00  4.16601e-16
      9616.00  3.99475e-16
      9618.00  4.14286e-16
      9620.00  4.05785e-16
      9622.00  3.76006e-16
      9624.00  3.93447e-16
      9626.00  3.77546e-16
      9628.00  3.59969e-16
      9630.00  3.58717e-16
      9632.00  3.72612e-16
      9634.00  4.01769e-16
      9636.00  4.22716e-16
      9638.00  3.76296e-16
      9640.00  3.45176e-16
      9642.00  3.95604e-16
      9644.00  4.06097e-16
      9646.00  3.95834e-16
      9648.00  3.64910e-16
      9650.00  3.91366e-16
      9652.00  3.83537e-16
      9654.00  3.81819e-16
      9656.00  3.80205e-16
      9658.00  3.86555e-16
      9660.00  4.01891e-16
      9662.00  3.90767e-16
      9664.00  3.52980e-16
      9666.00  3.78791e-16
      9668.00  4.04375e-16
      9670.00  3.89176e-16
      9672.00  3.85318e-16
      9674.00  3.86944e-16
      9676.00  3.94768e-16
      9678.00  4.08234e-16
      9680.00  4.31755e-16
      9682.00  3.80589e-16
      9684.00  3.66562e-16
      9686.00  3.98201e-16
      9688.00  3.88340e-16
      9690.00  3.79654e-16
      9692.00  3.71211e-16
      9694.00  3.81283e-16
      9696.00  3.86628e-16
      9698.00  4.23576e-16
      9700.00  4.27829e-16
      9702.00  3.63435e-16
      9704.00  3.74821e-16
      9706.00  3.92671e-16
      9708.00  4.06808e-16
      9710.00  3.91228e-16
      9712.00  4.07318e-16
      9714.00  4.01912e-16
      9716.00  3.84435e-16
      9718.00  3.97225e-16
      9720.00  3.80763e-16
      9722.00  3.73211e-16
      9724.00  3.64050e-16
      9726.00  3.62662e-16
      9728.00  3.72344e-16
      9730.00  3.82831e-16
      9732.00  3.72246e-16
      9734.00  4.04044e-16
      9736.00  4.09036e-16
      9738.00  3.43002e-16
      9740.00  3.38137e-16
      9742.00  3.62389e-16
      9744.00  3.62345e-16
      9746.00  3.38755e-16
      9748.00  3.64343e-16
      9750.00  3.56519e-16
      9752.00  3.85848e-16
      9754.00  3.97196e-16
      9756.00  3.80574e-16
      9758.00  3.73975e-16
      9760.00  3.65165e-16
      9762.00  3.97097e-16
      9764.00  3.59658e-16
      9766.00  3.61927e-16
      9768.00  3.68362e-16
      9770.00  3.68730e-16
      9772.00  3.79193e-16
      9774.00  3.76837e-16
      9776.00  3.64414e-16
      9778.00  3.62810e-16
      9780.00  3.77684e-16
      9782.00  3.67924e-16
      9784.00  3.59136e-16
      9786.00  3.74632e-16
      9788.00  3.96595e-16
      9790.00  3.93598e-16
      9792.00  3.53087e-16
      9794.00  3.53106e-16
      9796.00  3.67973e-16
      9798.00  3.93953e-16
      9800.00  3.78688e-16
      9802.00  3.66268e-16
      9804.00  3.60808e-16
      9806.00  3.86874e-16
      9808.00  4.01914e-16
      9810.00  3.85589e-16
      9812.00  3.69613e-16
      9814.00  3.62244e-16
      9816.00  3.55472e-16
      9818.00  3.75360e-16
      9820.00  3.71813e-16
      9822.00  3.81296e-16
      9824.00  3.85268e-16
      9826.00  3.82685e-16
      9828.00  3.68672e-16
      9830.00  3.78237e-16
      9832.00  3.77665e-16
      9834.00  3.61799e-16
      9836.00  3.74850e-16
      9838.00  3.82522e-16
      9840.00  3.92719e-16
      9842.00  3.71733e-16
      9844.00  3.61839e-16
      9846.00  3.89053e-16
      9848.00  3.90683e-16
      9850.00  3.48357e-16
      9852.00  3.45730e-16
      9854.00  3.74738e-16
      9856.00  3.81326e-16
      9858.00  3.90869e-16
      9860.00  3.93816e-16
      9862.00  4.03359e-16
      9864.00  4.65668e-16
      9866.00  5.18471e-16
      9868.00  6.51628e-16
      9870.00  7.41313e-16
      9872.00  5.25936e-16
      9874.00  3.75209e-16
      9876.00  3.46892e-16
      9878.00  3.77205e-16
      9880.00  3.74195e-16
      9882.00  3.62545e-16
      9884.00  3.76990e-16
      9886.00  3.64166e-16
      9888.00  3.64656e-16
      9890.00  3.67343e-16
      9892.00  4.25196e-16
      9894.00  3.74623e-16
      9896.00  3.52161e-16
      9898.00  3.52121e-16
      9900.00  3.48073e-16
      9902.00  3.59808e-16
      9904.00  3.68745e-16
      9906.00  3.85437e-16
      9908.00  3.72946e-16
      9910.00  3.73556e-16
      9912.00  4.27324e-16
      9914.00  3.84894e-16
      9916.00  3.48578e-16
      9918.00  3.59745e-16
      9920.00  3.68360e-16
      9922.00  3.61660e-16
      9924.00  3.75900e-16
      9926.00  3.65279e-16
      9928.00  3.64489e-16
      9930.00  3.70677e-16
      9932.00  3.78573e-16
      9934.00  3.89100e-16
      9936.00  3.66132e-16
      9938.00  4.04924e-16
      9940.00  3.95141e-16
      9942.00  3.85887e-16
      9944.00  4.22806e-16
      9946.00  3.74033e-16
      9948.00  3.46910e-16
      9950.00  3.50659e-16
      9952.00  3.71605e-16
      9954.00  4.33035e-16
      9956.00  3.99482e-16
      9958.00  3.92293e-16
      9960.00  3.97799e-16
      9962.00  3.55750e-16
      9964.00  3.58577e-16
      9966.00  3.50722e-16
      9968.00  3.85673e-16
      9970.00  3.92935e-16
      9972.00  3.91648e-16
      9974.00  3.69765e-16
      9976.00  3.63443e-16
      9978.00  3.70211e-16
      9980.00  3.66309e-16
      9982.00  3.76440e-16
      9984.00  3.71836e-16
      9986.00  3.58266e-16
      9988.00  3.43152e-16
      9990.00  3.61624e-16
      9992.00  3.83948e-16
      9994.00  3.59710e-16
      9996.00  3.76085e-16
      9998.00  3.91233e-16
      10000.0  3.87829e-16
      10002.0  3.58758e-16
      10004.0  3.62088e-16
      10006.0  3.61673e-16
      10008.0  3.80511e-16
      10010.0  4.10442e-16
      10012.0  3.74376e-16
      10014.0  3.43988e-16
      10016.0  2.94749e-16
      10018.0  3.20632e-16
      10020.0  3.48715e-16
      10022.0  3.85515e-16
      10024.0  3.71743e-16
      10026.0  3.56196e-16
      10028.0  3.48708e-16
      10030.0  3.53696e-16
      10032.0  3.80635e-16
      10034.0  3.62505e-16
      10036.0  3.56144e-16
      10038.0  3.37561e-16
      10040.0  3.65443e-16
      10042.0  3.72610e-16
      10044.0  3.81651e-16
      10046.0  3.46675e-16
      10048.0  3.49782e-16
      10050.0  3.45561e-16
      10052.0  3.54286e-16
      10054.0  3.89529e-16
      10056.0  3.91374e-16
      10058.0  4.19510e-16
      10060.0  3.75311e-16
      10062.0  3.77364e-16
      10064.0  3.56857e-16
      10066.0  3.78598e-16
      10068.0  3.78948e-16
      10070.0  3.86126e-16
      10072.0  3.44380e-16
      10074.0  3.50926e-16
      10076.0  3.53800e-16
      10078.0  3.72472e-16
      10080.0  3.94908e-16
      10082.0  3.51583e-16
      10084.0  3.39776e-16
      10086.0  3.10811e-16
      10088.0  3.46198e-16
      10090.0  3.35071e-16
      10092.0  3.49591e-16
      10094.0  3.57720e-16
      10096.0  3.59107e-16
      10098.0  3.89333e-16
      10100.0  3.75060e-16
