SIMPLE  =                    T / Written by IDL:  Fri Jun 13 15:47:19 2014      
BITPIX  =                  -32 /bits per data value                             
NAXIS   =                    2 /number of axes                                  
NAXIS1  =                 3853 /Number of positions along axis 1                
NAXIS2  =                    3 /Number of positions along axis 2                
ORIGIN  = 'Institute for Astronomy' /                                           
TELESCOP= 'NASA IRTF'          /                                                
INSTRUME= 'SPeX, IRTF Spectrograph' /                                           
OBSERVER= 'Marion,Sand,Bochanski' /                                             
OBJECT  = 'HIP52478'           /                                                
IRAFNAME= 'SN14J_merge'        /                                                
TIME_OBS= '11:23:15.4554'      / Average UT TIME OF ACQISTION ('hh:mm:ss.ss')   
DATE_OBS= '2014-01-25'         / UT DATE OF ACQUISITION ('yyyy/mm/dd')          
ITIME   =            4.0000000 / INTEGRATION TIME IN SECONDS                    
CO_ADDS =                    2 / NUMBER OF INTEGRATIONS                         
NDR     =                    7 / Number of Non-Destructive Reads                
SLOWCNT =                   20 / Number of Slow Counts                          
TABLE_MS=            512.45200 / msec to clock out array                        
ROTATOR =            343.45000 / Rotator_Mechanical_Angle; pos=686904           
POSANGLE=            213.10000 / Average Sky_Position_Angle                     
SLIT    = '0.3x15  '           / menu=2,pos=89000                               
GRAT    = 'ShortXD '           / menu=0,pos=719950                              
PLATE_SC=           0.15000000 / PlateScale arcsec/pixel                        
RA      = '+10:43:43.70 '      / Right Ascension                                
DEC     = '+57:11:56.1 '       / Declination                                    
HA      = '+01:24:11.0025'     / Average Hour Angle                             
AIRMASS =              1.56100 / Average Air Mass                               
EPOCH   =            2000.0000 / Epoch                                          
MODENAME= 'ShortXD '           / Spectroscopy mode                              
FLAT    = 'flat50-54.fits'     / Flat field image                               
NAPS    =                    1 / Number of apertures                            
NORDERS =                    1 / Number of orders                               
ORDERS  = '0       '           / Order numbers                                  
START   =                    0 / Array column of first FITS array column        
STOP    =                 3852 / Array column of last FITS array column         
SLTH_PIX=            100.00000 / Slit height in pixels                          
SLTH_ARC=            15.000000 / Slit height in arcseconds                      
SLTW_PIX=            2.0000000 / Slit width in pixels                           
SLTW_ARC=           0.30000000 / Slit width in arcseconds                       
APPOSO03= '3.65436 '           / Aperture positions (arcsec) for order 03       
APPOSO04= '3.63544 '           / Aperture positions (arcsec) for order 04       
APPOSO05= '3.59981 '           / Aperture positions (arcsec) for order 05       
APPOSO06= '3.56324 '           / Aperture positions (arcsec) for order 06       
APPOSO07= '3.51862 '           / Aperture positions (arcsec) for order 07       
APPOSO08= '3.49755 '           / Aperture positions (arcsec) for order 08       
PSFRAD  =            2.2000000 / Optimal extraction PSF radius in arcseconds    
APRADIUS=            1.0000000 / Aperture radius in arcseconds                  
BGSTART =            2.2000000 / Background start radius in arcseconds          
BGWIDTH =            2.0000000 / Background width in arcseconds                 
BGORDER =            0.0000000 / Background polynomial fit degree               
WAVECAL = 'wavecal55-57.fits'  / Wavecal file used for wavelength calibration   
XUNITS  = 'um      '           / Units of the X axis                            
YUNITS  = 'ergss-1cm-2A-1'     /Units of the Y axis                             
XTITLE  = '!7k!5 (!7l!5m)'     / IDL X title                                    
YTITLE  = '!5f!D!7k!N!5 (ergs s!E-1!N cm!E-2!N !5!sA!r!u!9 %!5!n!E-1!N)' / IDL Y
VERSION = 'v3.4    '           / Spextool version                               
RES     =            2000.0000 / Average spectral resolving power               
DISPO03 =        0.00053751100 / Dispersion (um pixel-1) for order 03           
DISPO04 =        0.00040319100 / Dispersion (um pixel-1) for order 04           
DISPO05 =        0.00032272900 / Dispersion (um pixel-1) for order 05           
DISPO06 =        0.00026919600 / Dispersion (um pixel-1) for order 06           
DISPO07 =        0.00023105200 / Dispersion (um pixel-1) for order 07           
DISPO08 =        0.00020252500 / Dispersion (um pixel-1) for order 08           
DAIRMASS=            -0.208000 / Average airmass difference between std and obj 
HISTORY The output FITS files contain a 3-D array of data consisting ofsets of  
HISTORY  triplet arrays of data for each aperture and each order,where each tr  
HISTORY iplet is composed of an array for the wavelength,an array for the flux  
HISTORY , and an array for the error. The tripletsfor each aperture are stacke  
HISTORY d behind one another, followed bythe triplets for the next order, etc.  
HISTORY  If no orders have beenskipped or deslected in the extraction process,  
HISTORY  the contents ofaperture Y in order X can be found as follows:lambda =  
HISTORY array[*,0,( X - (smallest order number))*naps + (Y-1)], flux   =array[  
HISTORY *,1,( X - (smallest order number))*naps + (Y-1)], error  =array[*,2,(   
HISTORY X - (smallest order number))*naps + (Y-1)]  Forexample, for an SXD fil  
HISTORY e with two apertures, the wavelengtharray for aperture 1 in order 3 is  
HISTORY  located in array [*,0,0], theflux is in array [*,1,0] and the error i  
HISTORY s in array [*,2,0]. Foraperture 2, the wavelength is in array [*,0,1],  
HISTORY  the flux is inarray [*,1,1] and the error is in array [*,2,1]. For or  
HISTORY der 4,the flux for aperture 1 is in array [*,1,2], while the flux fora  
HISTORY perture 2 is in array [*,1,3]. For order 5, the fluxes for thetwo aper  
HISTORY tures are in arrays [*,1,4] and [*,1,5], etc.  Thespectra have been co  
HISTORY rrected for non-linearity.                                              
HISTORY                                                                         
HISTORY Xcombspec History                                                       
HISTORY                                                                         
HISTORY The spectra were combined using a Robust Weighted Mean.  The robust     
HISTORY threshold was 8.00000.  The files spectra0024.fits, spectra0025.fits,   
HISTORY spectra0026.fits, spectra0027.fits, spectra0028.fits,                   
HISTORY spectra0029.fits, spectra0030.fits, spectra0031.fits,                   
HISTORY spectra0032.fits, spectra0033.fits, spectra0034.fits,                   
HISTORY spectra0035.fits were combined.    Aperture 01 Info: The scale          
HISTORY factors were determined using order 05.  The scale factors are          
HISTORY 1.03829, 1.11579, 0.983770, 0.950954, 0.931083, 1.05311, 1.01678,       
HISTORY 0.919712, 0.903883, 1.06481, 1.07070, 0.921588.  The median RMS         
HISTORY deviation in each order is 6.48820, 6.01926, 3.90797, 8.53554,          
HISTORY 6.59353, 3.18024.    The spectral shapes have been corrected.           
HISTORY                                                                         
HISTORY Xtellcor History                                                        
HISTORY                                                                         
HISTORY This spectrum was telluric corrected using the telluric correction      
HISTORY spectra SN14J_tellcor_tellcor.fits.  The B and V magnitudes of          
HISTORY HIP52478 are 5.75100, and 5.78800 respectively.  The velocity shift     
HISTORY of Vega is 33.6993 km s-1.  The Vega model was modified using the       
HISTORY deconvolution method.  The maximum deviation and rms deviation          
HISTORY between the modified Vega model and the data over the kernel            
HISTORY wavelength range are 5.56587 % and 2.39949 %, respectively.  The        
HISTORY telluric correction spectra for aperture 01 were shifted by             
HISTORY -0.466126, -0.465187, -0.159052, 0.570314, -0.251563, 0.502734 pixels.  
HISTORY                                                                         
HISTORY Xmergeorders History                                                    
HISTORY                                                                         
HISTORY This merged spectrum was derived from aperture 01 of file               
HISTORY SN14J_tellcor.fits.  The scaled factors for orders 3, 4, 5, 6, 7, 8     
HISTORY are 1.00000, 0.989435, 0.981314, 0.981204, 0.979452, 0.974404           
HISTORY respectively.                                                           
END                                                                             
  7871.7400 2.35230e-13 4.43027e-14
  7874.1700 2.44135e-13 4.36223e-14
  7876.6000 2.19064e-13 3.84620e-14
  7879.0400 2.02018e-13 3.62222e-14
  7881.4700 2.03918e-13 3.69036e-14
  7883.9000 2.28458e-13 3.96781e-14
  7886.3300 1.98630e-13 3.65729e-14
  7888.7600 1.72261e-13 3.19148e-14
  7891.1900 1.81279e-13 3.22795e-14
  7893.6200 1.93038e-13 3.28989e-14
  7896.0500 1.69262e-13 2.94488e-14
  7898.4800 1.71414e-13 3.05561e-14
  7900.9100 2.18129e-13 3.75767e-14
  7903.3400 2.49532e-13 4.27965e-14
  7905.7700 2.12366e-13 3.69586e-14
  7908.2000 2.04334e-13 3.51191e-14
  7910.6300 1.89581e-13 3.21345e-14
  7913.0600 1.60086e-13 2.87352e-14
  7915.5000 1.54543e-13 2.70635e-14
  7917.9300 1.60169e-13 2.63503e-14
  7920.3600 1.70537e-13 2.78966e-14
  7922.7900 1.56374e-13 2.71241e-14
  7925.2200 1.51344e-13 2.58746e-14
  7927.6500 1.40439e-13 2.49315e-14
  7930.0800 1.29500e-13 2.30043e-14
  7932.5100 1.47747e-13 2.44028e-14
  7934.9400 1.54383e-13 2.44975e-14
  7937.3700 1.54256e-13 2.45987e-14
  7939.8000 1.64468e-13 2.67530e-14
  7942.2300 1.52519e-13 2.62369e-14
  7944.6600 1.80093e-13 2.85258e-14
  7947.0900 1.93464e-13 2.99725e-14
  7949.5200 1.74537e-13 2.73703e-14
  7951.9500 1.41968e-13 2.38313e-14
  7954.3900 1.60059e-13 2.45281e-14
  7956.8200 1.52502e-13 2.29754e-14
  7959.2500 1.37707e-13 2.18423e-14
  7961.6800 1.26203e-13 2.05495e-14
  7964.1100 1.31735e-13 1.99068e-14
  7966.5400 1.24740e-13 1.93800e-14
  7968.9700 1.30019e-13 1.97599e-14
  7971.4000 1.23370e-13 1.94922e-14
  7973.8300 1.41406e-13 2.11391e-14
  7976.2600 1.53370e-13 2.20771e-14
  7978.6900 1.44935e-13 2.11244e-14
  7981.1200 1.36952e-13 1.98672e-14
  7983.5500 1.19715e-13 1.87628e-14
  7985.9800 1.28719e-13 1.91141e-14
  7988.4100 1.27483e-13 1.91735e-14
  7990.8400 1.25899e-13 1.89752e-14
  7993.2800 1.37859e-13 1.95577e-14
  7995.7100 1.23281e-13 1.79436e-14
  7998.1400 1.25310e-13 1.80544e-14
  8000.5700 1.33637e-13 1.89404e-14
  8003.0000 1.33156e-13 1.89233e-14
  8005.4300 1.19152e-13 1.72966e-14
  8007.8600 1.23274e-13 1.70568e-14
  8010.2900 1.17421e-13 1.64627e-14
  8012.7200 1.29281e-13 1.77949e-14
  8015.1500 1.28481e-13 1.77283e-14
  8017.5800 1.28867e-13 1.70808e-14
  8020.0100 1.31696e-13 1.73368e-14
  8022.4400 1.30462e-13 1.73852e-14
  8024.8700 1.16142e-13 1.54874e-14
  8027.3100 1.16293e-13 1.51278e-14
  8029.7400 1.11938e-13 1.48809e-14
  8032.1700 1.17685e-13 1.50456e-14
  8034.6000 1.14769e-13 1.50245e-14
  8037.0300 1.20054e-13 1.52014e-14
  8039.4600 1.15480e-13 1.48542e-14
  8041.8900 1.20191e-13 1.50759e-14
  8044.3200 1.11856e-13 1.43378e-14
  8046.7500 1.19910e-13 1.50337e-14
  8049.1800 1.21574e-13 1.50052e-14
  8051.6100 1.20743e-13 1.49838e-14
  8054.0400 1.25308e-13 1.52603e-14
  8056.4700 1.29086e-13 1.54777e-14
  8058.9000 1.20681e-13 1.47409e-14
  8061.3300 1.22476e-13 1.45570e-14
  8063.7600 1.23411e-13 1.44452e-14
  8066.2000 1.28581e-13 1.46634e-14
  8068.6300 1.18233e-13 1.40070e-14
  8071.0600 1.22003e-13 1.40665e-14
  8073.4900 1.20343e-13 1.36818e-14
  8075.9200 1.20302e-13 1.35048e-14
  8078.3500 1.09003e-13 1.26808e-14
  8080.7800 1.05458e-13 1.23580e-14
  8083.2100 1.03764e-13 1.23352e-14
  8085.6400 1.12599e-13 1.29606e-14
  8088.0700 1.12923e-13 1.27998e-14
  8090.5000 1.09459e-13 1.25010e-14
  8092.9300 1.06741e-13 1.23077e-14
  8095.3600 1.00410e-13 1.18402e-14
  8097.7900 9.85679e-14 1.15043e-14
  8100.2200 9.75804e-14 1.13661e-14
  8102.6500 9.28542e-14 1.10094e-14
  8105.0900 9.21838e-14 1.09669e-14
  8107.5200 9.28970e-14 1.10507e-14
  8109.9500 8.84352e-14 1.06428e-14
  8112.3800 8.32085e-14 1.01030e-14
  8114.8100 7.82454e-14 9.66809e-15
  8117.2400 7.68889e-14 9.56859e-15
  8119.6700 7.33330e-14 9.30211e-15
  8122.1000 7.29492e-14 9.23215e-15
  8124.5300 6.74424e-14 8.88173e-15
  8126.9600 6.53501e-14 8.53566e-15
  8129.3900 6.46135e-14 8.34349e-15
  8131.8200 5.56401e-14 7.87994e-15
  8134.2500 5.47175e-14 7.74099e-15
  8136.6800 5.30877e-14 7.63606e-15
  8139.1100 4.60202e-14 7.02752e-15
  8141.5500 4.56564e-14 6.95624e-15
  8143.9800 4.49939e-14 6.96607e-15
  8146.4100 4.50846e-14 6.81086e-15
  8148.8400 4.13601e-14 6.43418e-15
  8151.2700 4.05575e-14 6.59441e-15
  8153.7000 3.87406e-14 6.31660e-15
  8156.1300 3.58551e-14 4.44225e-15
  8158.5600 3.43649e-14 1.63227e-14
  8160.9900 3.17210e-14 1.10770e-14
  8163.4200 3.33397e-14 5.17050e-15
  8165.8500 3.36217e-14 5.70731e-15
  8168.2800 2.96859e-14 5.47217e-15
  8170.7100 2.59539e-14 5.05833e-15
  8173.1400 3.05481e-14 5.49614e-15
  8175.5700 2.65623e-14 5.28139e-15
  8178.0000 2.69272e-14 5.10478e-15
  8180.4400 2.58295e-14 4.97390e-15
  8182.8700 2.53502e-14 4.96400e-15
  8185.3000 2.65448e-14 5.00485e-15
  8187.7300 2.42453e-14 4.67135e-15
  8190.1600 2.75943e-14 4.91748e-15
  8192.5900 2.44520e-14 4.61196e-15
  8195.0200 2.39763e-14 4.56976e-15
  8197.4500 2.23020e-14 4.44333e-15
  8199.8800 2.28014e-14 4.41747e-15
  8202.3100 2.23093e-14 4.24802e-15
  8204.7400 2.06325e-14 3.99567e-15
  8207.1700 1.82586e-14 3.69161e-15
  8209.6000 1.96508e-14 3.88662e-15
  8212.0300 2.00445e-14 3.87291e-15
  8214.4600 2.26552e-14 4.01412e-15
  8216.9000 2.05609e-14 3.83041e-15
  8219.3300 2.39810e-14 4.04811e-15
  8221.7600 2.08702e-14 3.76198e-15
  8224.1900 2.09306e-14 3.79515e-15
  8226.6200 2.33236e-14 3.95149e-15
  8229.0500 2.44673e-14 4.00622e-15
  8231.4800 2.28800e-14 3.87971e-15
  8233.9100 2.33553e-14 3.92473e-15
  8236.3400 2.59449e-14 4.09021e-15
  8238.7700 2.11907e-14 3.64915e-15
  8241.2000 2.45940e-14 3.81818e-15
  8243.6300 2.41846e-14 3.74113e-15
  8246.0600 2.33036e-14 3.65211e-15
  8248.4900 2.47384e-14 3.70472e-15
  8250.9200 2.37376e-14 3.59503e-15
  8253.3600 2.41551e-14 3.60384e-15
  8255.7900 2.58100e-14 3.70918e-15
  8258.2200 2.53627e-14 3.66818e-15
  8260.6500 2.42467e-14 3.55223e-15
  8263.0800 2.70316e-14 3.77164e-15
  8265.5100 2.53482e-14 3.64177e-15
  8267.9400 2.69766e-14 3.64100e-15
  8270.3700 2.63533e-14 3.59353e-15
  8272.8000 2.60624e-14 3.63182e-15
  8275.2300 2.53138e-14 3.57468e-15
  8277.6600 2.52096e-14 3.60977e-15
  8280.0900 2.71203e-14 3.66235e-15
  8282.5200 2.62425e-14 3.61021e-15
  8284.9500 2.60318e-14 3.56730e-15
  8287.3800 2.66003e-14 3.56008e-15
  8289.8100 2.69653e-14 3.59131e-15
  8292.2500 2.72596e-14 3.55188e-15
  8294.6800 2.85311e-14 3.61740e-15
  8297.1100 2.80926e-14 3.59016e-15
  8299.5400 2.77086e-14 3.53550e-15
  8301.9700 2.81370e-14 3.55035e-15
  8304.4000 2.97878e-14 3.58893e-15
  8306.8300 2.86020e-14 3.54473e-15
  8309.2600 2.88160e-14 3.54270e-15
  8311.6900 3.01158e-14 3.55415e-15
  8314.1200 3.10380e-14 3.60656e-15
  8316.5500 3.18551e-14 3.63620e-15
  8318.9800 3.29018e-14 3.71381e-15
  8321.4100 3.16422e-14 3.65450e-15
  8323.8400 3.25120e-14 3.64204e-15
  8326.2700 3.39925e-14 3.68162e-15
  8328.7000 3.35964e-14 3.67261e-15
  8331.1400 3.39206e-14 3.66196e-15
  8333.5700 3.46905e-14 3.66557e-15
  8336.0000 3.53114e-14 3.68818e-15
  8338.4300 3.63710e-14 3.71144e-15
  8340.8600 3.66685e-14 3.70770e-15
  8343.2900 3.83619e-14 3.81057e-15
  8345.7200 3.86242e-14 3.81831e-15
  8348.1500 4.08944e-14 3.89541e-15
  8350.5800 4.31320e-14 4.00529e-15
  8353.0100 4.28738e-14 4.00579e-15
  8355.4400 4.28022e-14 3.97475e-15
  8357.8700 4.38729e-14 4.00225e-15
  8360.3000 4.45358e-14 3.98285e-15
  8362.7300 4.47398e-14 3.98563e-15
  8365.1600 4.52880e-14 4.01220e-15
  8367.6000 4.71943e-14 4.05462e-15
  8370.0300 4.72072e-14 4.06838e-15
  8372.4600 4.74674e-14 4.12472e-15
  8374.8900 4.89959e-14 4.14359e-15
  8377.3200 5.07973e-14 4.15839e-15
  8379.7500 5.12184e-14 4.14852e-15
  8382.1800 5.29856e-14 4.23732e-15
  8384.6100 5.48598e-14 4.33029e-15
  8387.0400 5.60192e-14 4.34623e-15
  8389.4700 5.50670e-14 4.29661e-15
  8391.9000 5.78558e-14 4.40458e-15
  8394.3300 6.04963e-14 4.50321e-15
  8396.7600 6.11932e-14 4.51964e-15
  8399.1900 6.18219e-14 4.53493e-15
  8401.6200 6.38925e-14 4.64226e-15
  8404.0600 6.57378e-14 4.66575e-15
  8406.4900 6.72023e-14 4.70798e-15
  8408.9200 6.86680e-14 4.76358e-15
  8411.3500 7.07298e-14 4.83924e-15
  8413.7800 7.41263e-14 4.95372e-15
  8416.2100 7.74673e-14 5.05886e-15
  8418.6400 8.01803e-14 5.16627e-15
  8421.0700 8.45851e-14 5.34127e-15
  8423.5000 8.74821e-14 5.41251e-15
  8425.9300 9.27120e-14 5.59113e-15
  8428.3600 9.88696e-14 5.80278e-15
  8430.7900 1.05745e-13 6.04455e-15
  8433.2200 1.11525e-13 6.21112e-15
  8435.6500 1.16497e-13 6.37408e-15
  8438.0800 1.23885e-13 6.63351e-15
  8440.5100 1.30143e-13 6.81630e-15
  8442.9500 1.34828e-13 6.96604e-15
  8445.3800 1.42660e-13 7.24799e-15
  8447.8100 1.48004e-13 7.41157e-15
  8450.2400 1.50615e-13 7.46215e-15
  8452.6700 1.55071e-13 7.60185e-15
  8455.1000 1.59830e-13 7.69748e-15
  8457.5300 1.61901e-13 7.72527e-15
  8459.9600 1.66544e-13 7.87335e-15
  8462.3900 1.72433e-13 8.11628e-15
  8464.8200 1.75571e-13 8.18866e-15
  8467.2500 1.78003e-13 8.24570e-15
  8469.6800 1.81230e-13 8.31507e-15
  8472.1100 1.81756e-13 8.28883e-15
  8474.5400 1.82699e-13 8.26885e-15
  8476.9700 1.84429e-13 8.30806e-15
  8479.4100 1.86489e-13 8.38367e-15
  8481.8400 1.89600e-13 8.46767e-15
  8484.2700 1.92311e-13 8.54938e-15
  8486.7000 1.94924e-13 8.61305e-15
  8489.1300 1.95797e-13 8.62763e-15
  8491.5600 1.97146e-13 8.65624e-15
  8493.9900 1.99421e-13 8.70958e-15
  8496.4200 2.00685e-13 8.73528e-15
  8498.8500 2.02056e-13 8.76921e-15
  8501.2800 2.05795e-13 8.86839e-15
  8503.7100 2.05388e-13 8.84315e-15
  8506.1400 2.05221e-13 8.82448e-15
  8508.5700 2.08077e-13 8.89914e-15
  8511.0000 2.10342e-13 8.95481e-15
  8513.4300 2.11231e-13 8.96670e-15
  8515.8700 2.13572e-13 9.02670e-15
  8518.3000 2.13705e-13 9.01214e-15
  8520.7300 2.14194e-13 9.01722e-15
  8523.1600 2.15918e-13 9.05757e-15
  8525.5900 2.17657e-13 9.09071e-15
  8528.0200 2.17265e-13 9.06007e-15
  8530.4500 2.18104e-13 9.07218e-15
  8532.8800 2.17813e-13 9.05303e-15
  8535.3100 2.19145e-13 9.07757e-15
  8537.7400 2.19860e-13 9.07844e-15
  8540.1700 2.20984e-13 9.09989e-15
  8542.6000 2.20490e-13 9.08199e-15
  8545.0300 2.22316e-13 9.11532e-15
  8547.4600 2.22163e-13 9.09471e-15
  8549.8900 2.22896e-13 9.10533e-15
  8552.3200 2.22982e-13 9.09677e-15
  8554.7600 2.24238e-13 9.11467e-15
  8557.1900 2.23570e-13 9.07726e-15
  8559.6200 2.23964e-13 9.08091e-15
  8562.0500 2.23298e-13 9.04442e-15
  8564.4800 2.24157e-13 9.05423e-15
  8566.9100 2.25452e-13 9.07732e-15
  8569.3400 2.24963e-13 9.05501e-15
  8571.7700 2.23247e-13 8.98129e-15
  8574.2000 2.23720e-13 8.98293e-15
  8576.6300 2.25017e-13 9.00870e-15
  8579.0600 2.27885e-13 9.10373e-15
  8581.4900 2.28934e-13 9.13850e-15
  8583.9200 2.28726e-13 9.12134e-15
  8586.3500 2.28272e-13 9.09094e-15
  8588.7800 2.29306e-13 9.10958e-15
  8591.2200 2.29210e-13 9.09431e-15
  8593.6500 2.29862e-13 9.10442e-15
  8596.0800 2.29526e-13 9.07889e-15
  8598.5100 2.29698e-13 9.06688e-15
  8600.9400 2.28599e-13 9.02532e-15
  8603.3700 2.29807e-13 9.04394e-15
  8605.8000 2.29436e-13 9.02433e-15
  8608.2300 2.30627e-13 9.04217e-15
  8609.5400 2.24228e-13 1.00552e-14
  8612.3000 2.19468e-13 9.15896e-15
  8615.0700 2.22637e-13 8.70769e-15
  8617.8300 2.25032e-13 8.51961e-15
  8620.6000 2.24122e-13 8.51372e-15
  8623.3700 2.23821e-13 8.83831e-15
  8626.1300 2.21328e-13 9.28922e-15
  8628.9000 2.22354e-13 9.96627e-15
  8631.6600 2.24019e-13 9.23876e-15
  8634.4300 2.27445e-13 8.82652e-15
  8637.1900 2.29906e-13 8.58251e-15
  8639.9600 2.26336e-13 8.39697e-15
  8642.7200 2.28193e-13 8.70561e-15
  8645.4900 2.28148e-13 9.18099e-15
  8648.2600 2.32121e-13 9.99323e-15
  8651.0200 2.31639e-13 9.56498e-15
  8653.7900 2.30070e-13 8.84874e-15
  8656.5500 2.35065e-13 8.63631e-15
  8659.3200 2.38172e-13 8.60779e-15
  8662.0800 2.37507e-13 8.69717e-15
  8664.8500 2.38039e-13 9.12683e-15
  8667.6100 2.36831e-13 9.69068e-15
  8670.3800 2.38145e-13 9.68682e-15
  8673.1500 2.41592e-13 9.13586e-15
  8675.9100 2.46836e-13 8.85727e-15
  8678.6800 2.45147e-13 8.57988e-15
  8681.4400 2.46426e-13 8.68855e-15
  8684.2100 2.49186e-13 9.15478e-15
  8686.9700 2.52316e-13 9.77551e-15
  8689.7400 2.51208e-13 1.00688e-14
  8692.5000 2.52564e-13 9.37121e-15
  8695.2700 2.55033e-13 8.97205e-15
  8698.0300 2.57427e-13 8.75626e-15
  8700.8000 2.57762e-13 8.76837e-15
  8703.5700 2.56564e-13 8.98034e-15
  8706.3300 2.51690e-13 9.47839e-15
  8709.1000 2.58707e-13 1.02397e-14
  8711.8600 2.63061e-13 9.66517e-15
  8714.6300 2.70264e-13 9.28349e-15
  8717.3900 2.68757e-13 8.89623e-15
  8720.1600 2.75149e-13 9.00919e-15
  8722.9200 2.77730e-13 9.31883e-15
  8725.6900 2.80560e-13 9.82114e-15
  8728.4600 2.75457e-13 1.02770e-14
  8731.2200 2.79143e-13 1.00242e-14
  8733.9900 2.82656e-13 9.60690e-15
  8736.7500 2.86498e-13 9.32038e-15
  8739.5200 2.80551e-13 8.99734e-15
  8742.2800 2.82385e-13 9.18481e-15
  8745.0500 2.80117e-13 9.50612e-15
  8747.8100 2.79676e-13 1.00229e-14
  8750.5800 2.77176e-13 9.97903e-15
  8753.3500 2.81279e-13 9.46010e-15
  8756.1100 2.78259e-13 8.96970e-15
  8758.8800 2.80567e-13 8.82068e-15
  8761.6400 2.78981e-13 8.84058e-15
  8764.4100 2.84801e-13 9.26488e-15
  8767.1700 2.82956e-13 9.70757e-15
  8769.9400 2.85622e-13 1.00519e-14
  8772.7000 2.87281e-13 9.53680e-15
  8775.4700 2.85749e-13 8.97670e-15
  8778.2400 2.86879e-13 8.76544e-15
  8781.0000 2.84071e-13 8.68862e-15
  8783.7700 2.85018e-13 8.94472e-15
  8786.5300 2.85195e-13 9.36889e-15
  8789.3000 2.83258e-13 9.85932e-15
  8792.0600 2.84167e-13 9.33812e-15
  8794.8300 2.83675e-13 8.86575e-15
  8797.5900 2.82571e-13 8.52529e-15
  8800.3600 2.84179e-13 8.50062e-15
  8803.1300 2.83013e-13 8.65152e-15
  8805.8900 2.80998e-13 8.92110e-15
  8808.6600 2.75343e-13 9.26407e-15
  8811.4200 2.75469e-13 8.99394e-15
  8814.1900 2.75225e-13 8.56639e-15
  8816.9500 2.76980e-13 8.30214e-15
  8819.7200 2.77212e-13 8.20291e-15
  8822.4800 2.77400e-13 8.31646e-15
  8825.2500 2.77503e-13 8.61046e-15
  8828.0100 2.76722e-13 9.04099e-15
  8830.7800 2.75669e-13 9.06422e-15
  8833.5500 2.74847e-13 8.56537e-15
  8836.3100 2.75174e-13 8.24240e-15
  8839.0800 2.73293e-13 8.02454e-15
  8841.8400 2.72538e-13 8.06398e-15
  8844.6100 2.71630e-13 8.27346e-15
  8847.3700 2.71054e-13 8.65256e-15
  8850.1400 2.71445e-13 8.91982e-15
  8852.9000 2.70179e-13 8.42356e-15
  8855.6700 2.70106e-13 8.07004e-15
  8858.4400 2.66494e-13 7.79481e-15
  8861.2000 2.68178e-13 7.82598e-15
  8863.9700 2.66129e-13 7.97382e-15
  8866.7300 2.65454e-13 8.29023e-15
  8869.5000 2.63863e-13 8.64974e-15
  8872.2600 2.62125e-13 8.21631e-15
  8875.0300 2.60161e-13 7.80656e-15
  8877.7900 2.58549e-13 7.53895e-15
  8880.5600 2.56382e-13 7.44549e-15
  8883.3300 2.55880e-13 7.56118e-15
  8886.0900 2.53682e-13 7.79473e-15
  8888.8600 2.54262e-13 8.16926e-15
  8891.6200 2.50449e-13 7.91933e-15
  8894.3900 2.49651e-13 7.52978e-15
  8897.1500 2.48597e-13 7.27196e-15
  8899.9200 2.47305e-13 7.13382e-15
  8902.6800 2.44025e-13 7.16293e-15
  8905.4500 2.42406e-13 7.34586e-15
  8908.2200 2.41070e-13 7.64757e-15
  8910.9800 2.40149e-13 7.66911e-15
  8913.7500 2.36893e-13 7.21685e-15
  8916.5100 2.34582e-13 6.89684e-15
  8919.2800 2.32144e-13 6.71681e-15
  8922.0400 2.30687e-13 6.72589e-15
  8924.8100 2.28332e-13 6.84954e-15
  8927.5700 2.28267e-13 7.16375e-15
  8930.3400 2.23751e-13 7.27181e-15
  8933.1000 2.21268e-13 6.87424e-15
  8935.8700 2.18316e-13 6.52986e-15
  8938.6400 2.16783e-13 6.32363e-15
  8941.4000 2.14836e-13 6.27446e-15
  8944.1700 2.13665e-13 6.45002e-15
  8946.9300 2.11803e-13 6.65632e-15
  8949.7000 2.10137e-13 6.91756e-15
  8952.4600 2.09405e-13 6.66148e-15
  8955.2300 2.07337e-13 6.32616e-15
  8957.9900 2.04548e-13 6.10447e-15
  8960.7600 2.03274e-13 6.04435e-15
  8963.5300 2.00860e-13 6.10073e-15
  8966.2900 2.00330e-13 6.31756e-15
  8969.0600 1.99543e-13 6.59611e-15
  8971.8200 1.98644e-13 6.48741e-15
  8974.5900 1.95839e-13 6.10715e-15
  8977.3500 1.95909e-13 5.93995e-15
  8980.1200 1.94597e-13 5.84235e-15
  8982.8800 1.94897e-13 5.93075e-15
  8985.6500 1.92727e-13 6.09636e-15
  8988.4200 1.91232e-13 6.33724e-15
  8991.1800 1.90897e-13 6.47776e-15
  8993.9500 1.92852e-13 6.25866e-15
  8996.7100 1.93623e-13 6.01771e-15
  8999.4800 1.93197e-13 5.89149e-15
  9002.2400 1.91756e-13 5.88525e-15
  9005.0100 1.87416e-13 5.93979e-15
  9007.7700 1.85378e-13 6.11544e-15
  9010.5400 1.85160e-13 6.30595e-15
  9013.3100 1.84465e-13 5.98921e-15
  9016.0700 1.82431e-13 5.70940e-15
  9018.8400 1.77929e-13 5.47216e-15
  9021.6000 1.77072e-13 5.44725e-15
  9024.3700 1.77114e-13 5.59403e-15
  9027.1300 1.75028e-13 5.72212e-15
  9029.9000 1.74698e-13 5.90527e-15
  9032.6600 1.76751e-13 5.76293e-15
  9035.4300 1.78024e-13 5.54835e-15
  9038.2000 1.76976e-13 5.36293e-15
  9040.9600 1.76156e-13 5.29916e-15
  9043.7300 1.75011e-13 5.33684e-15
  9046.4900 1.74907e-13 5.50354e-15
  9049.2600 1.76062e-13 5.77478e-15
  9052.0200 1.75174e-13 5.67137e-15
  9054.7900 1.75127e-13 5.45153e-15
  9057.5500 1.74112e-13 5.26096e-15
  9060.3200 1.75466e-13 5.24011e-15
  9063.0800 1.73512e-13 5.26125e-15
  9065.8500 1.73275e-13 5.40907e-15
  9068.6200 1.74496e-13 5.65711e-15
  9071.3800 1.72945e-13 5.69974e-15
  9074.1500 1.73941e-13 5.52214e-15
  9076.9100 1.76516e-13 5.41798e-15
  9079.6800 1.76351e-13 5.29886e-15
  9082.4400 1.75316e-13 5.30296e-15
  9085.2100 1.77854e-13 5.48638e-15
  9087.9700 1.76480e-13 5.64680e-15
  9090.7400 1.76952e-13 5.83309e-15
  9093.5100 1.80760e-13 5.72614e-15
  9096.2700 1.80648e-13 5.50730e-15
  9099.0400 1.78999e-13 5.32081e-15
  9101.8000 1.79868e-13 5.33546e-15
  9104.5700 1.79930e-13 5.45095e-15
  9107.3300 1.79818e-13 5.61558e-15
  9110.1000 1.83378e-13 5.94306e-15
  9112.8600 1.83496e-13 5.74791e-15
  9115.6300 1.83333e-13 5.53984e-15
  9118.4000 1.83986e-13 5.43865e-15
  9121.1600 1.82687e-13 5.39257e-15
  9123.9300 1.84081e-13 5.48082e-15
  9126.6900 1.87359e-13 5.74208e-15
  9129.4600 1.87641e-13 5.98533e-15
  9132.2200 1.87818e-13 5.97066e-15
  9134.9900 1.88735e-13 5.78204e-15
  9137.7500 1.89310e-13 5.63280e-15
  9140.5200 1.89619e-13 5.54272e-15
  9143.2900 1.91982e-13 5.60866e-15
  9146.0500 1.93823e-13 5.76258e-15
  9148.8200 1.95579e-13 6.04080e-15
  9151.5800 1.95397e-13 6.14515e-15
  9154.3500 1.95916e-13 5.95602e-15
  9157.1100 1.97423e-13 5.84404e-15
  9159.8800 1.99398e-13 5.77728e-15
  9162.6400 2.02049e-13 5.82214e-15
  9165.4100 2.03241e-13 5.94602e-15
  9168.1700 2.04739e-13 6.16269e-15
  9170.9400 2.06932e-13 6.47844e-15
  9173.7100 2.06367e-13 6.20921e-15
  9176.4700 2.07791e-13 6.08132e-15
  9179.2400 2.10073e-13 5.99815e-15
  9182.0000 2.13653e-13 6.06711e-15
  9184.7700 2.13466e-13 6.15115e-15
  9187.5300 2.12708e-13 6.28900e-15
  9190.3000 2.17342e-13 6.62471e-15
  9193.0600 2.20093e-13 6.57047e-15
  9195.8300 2.23547e-13 6.46080e-15
  9198.6000 2.25222e-13 6.31662e-15
  9201.3600 2.28622e-13 6.33650e-15
  9204.1300 2.30602e-13 6.46313e-15
  9206.8900 2.32692e-13 6.68227e-15
  9209.6600 2.34791e-13 6.97057e-15
  9212.4200 2.35187e-13 6.99443e-15
  9215.1900 2.38179e-13 6.84438e-15
  9217.9500 2.38506e-13 6.67027e-15
  9220.7200 2.39073e-13 6.60443e-15
  9223.4900 2.39871e-13 6.67769e-15
  9226.2500 2.42165e-13 6.89302e-15
  9229.0200 2.41864e-13 7.11384e-15
  9231.7800 2.43510e-13 7.26679e-15
  9234.5500 2.43394e-13 7.01219e-15
  9237.3100 2.43000e-13 6.79378e-15
  9240.0800 2.42068e-13 6.66720e-15
  9242.8400 2.42850e-13 6.69602e-15
  9245.6100 2.42497e-13 6.82716e-15
  9248.3800 2.36244e-13 6.89261e-15
  9251.1400 2.44677e-13 7.33009e-15
  9253.9100 2.45608e-13 7.08997e-15
  9256.6700 2.43681e-13 6.82365e-15
  9259.4400 2.46114e-13 6.74489e-15
  9262.2000 2.47330e-13 6.76070e-15
  9264.9700 2.47969e-13 6.89156e-15
  9267.7300 2.46819e-13 7.06890e-15
  9270.5000 2.45671e-13 7.29263e-15
  9273.2700 2.42550e-13 7.05575e-15
  9276.0300 2.42911e-13 6.83995e-15
  9278.8000 2.46127e-13 6.84569e-15
  9281.5600 2.45444e-13 6.77274e-15
  9284.3300 2.44339e-13 6.81821e-15
  9287.0900 2.45551e-13 7.05773e-15
  9289.8600 2.46687e-13 7.33329e-15
  9292.6200 2.46117e-13 7.31701e-15
  9295.3900 2.45672e-13 7.07191e-15
  9298.1500 2.45790e-13 6.93565e-15
  9300.9200 2.44895e-13 6.85750e-15
  9303.6900 2.47372e-13 7.03245e-15
  9306.4500 2.46973e-13 7.19561e-15
  9309.2200 2.49764e-13 7.59053e-15
  9311.9800 2.48140e-13 7.67685e-15
  9314.7500 2.46000e-13 7.42718e-15
  9317.5100 2.44859e-13 7.23283e-15
  9320.2800 2.45111e-13 7.19264e-15
  9323.0500 2.44457e-13 7.25172e-15
  9325.8100 2.45125e-13 7.36835e-15
  9328.5800 2.46719e-13 7.65512e-15
  9331.3400 2.47728e-13 7.94133e-15
  9334.1100 2.48392e-13 7.69361e-15
  9336.8700 2.49776e-13 7.56894e-15
  9339.6400 2.47131e-13 7.47541e-15
  9342.4000 2.46964e-13 7.56873e-15
  9345.1700 2.44621e-13 7.64116e-15
  9347.9300 2.45200e-13 7.82560e-15
  9350.7000 2.48366e-13 8.03800e-15
  9353.4700 2.50259e-13 7.82465e-15
  9356.2300 2.48064e-13 7.55193e-15
  9359.0000 2.43642e-13 7.41255e-15
  9361.7600 2.42834e-13 7.35266e-15
  9364.5300 2.46134e-13 7.39610e-15
  9367.2900 2.45942e-13 7.53446e-15
  9370.0600 2.46284e-13 7.77505e-15
  9372.8200 2.44486e-13 7.93363e-15
  9375.5900 2.44765e-13 7.66946e-15
  9378.3600 2.44636e-13 7.44652e-15
  9381.1200 2.46252e-13 7.37657e-15
  9383.8900 2.42507e-13 7.31645e-15
  9386.6500 2.41454e-13 7.41588e-15
  9389.4200 2.42023e-13 7.48888e-15
  9392.1800 2.43435e-13 7.53733e-15
  9394.9500 2.42155e-13 7.19013e-15
  9397.7100 2.42612e-13 6.98571e-15
  9400.4800 2.40937e-13 6.83429e-15
  9403.2400 2.39538e-13 6.83467e-15
  9406.0100 2.38629e-13 6.99918e-15
  9408.7800 2.38594e-13 7.16420e-15
  9411.5400 2.39584e-13 7.42975e-15
  9414.3100 2.40580e-13 7.34658e-15
  9417.0700 2.38866e-13 7.06807e-15
  9419.8400 2.42918e-13 7.00750e-15
  9422.6000 2.42963e-13 7.03730e-15
  9425.3700 2.40286e-13 7.03937e-15
  9428.1300 2.39120e-13 7.27430e-15
  9430.9000 2.39857e-13 7.61483e-15
  9433.6700 2.40492e-13 7.65297e-15
  9436.4300 2.43006e-13 7.37885e-15
  9439.2000 2.45433e-13 7.24096e-15
  9441.9600 2.41733e-13 7.16141e-15
  9444.7300 2.37622e-13 7.30976e-15
  9447.4900 2.40751e-13 7.51532e-15
  9450.2600 2.45242e-13 7.68572e-15
  9453.0200 2.48885e-13 7.60818e-15
  9455.7900 2.45350e-13 7.33529e-15
  9458.5600 2.42983e-13 7.21246e-15
  9461.3200 2.41436e-13 7.23930e-15
  9464.0900 2.46326e-13 7.47324e-15
  9466.8500 2.46534e-13 7.58462e-15
  9469.6200 2.48143e-13 7.71519e-15
  9472.3800 2.48929e-13 7.72104e-15
  9475.1500 2.51105e-13 7.54442e-15
  9477.9100 2.49689e-13 7.40906e-15
  9480.6800 2.49980e-13 7.31211e-15
  9483.4500 2.48936e-13 9.44652e-15
  9486.2100 2.49463e-13 9.44411e-15
  9488.9800 2.48059e-13 9.33502e-15
  9491.7400 2.54193e-13 9.26737e-15
  9494.5100 2.60852e-13 9.47056e-15
  9497.2700 2.61467e-13 9.62592e-15
  9500.0400 2.54218e-13 9.67743e-15
  9502.8000 2.50457e-13 9.59378e-15
  9505.5700 2.47876e-13 9.52551e-15
  9508.3300 2.50809e-13 9.35221e-15
  9511.1000 2.53905e-13 9.25973e-15
  9513.8700 2.62517e-13 9.29877e-15
  9516.6300 2.65685e-13 9.55044e-15
  9519.4000 2.67461e-13 9.67987e-15
  9522.1600 2.63243e-13 9.80799e-15
  9524.9300 2.61346e-13 9.77649e-15
  9527.6900 2.58455e-13 9.71122e-15
  9530.4600 2.61306e-13 9.69585e-15
  9533.2200 2.60209e-13 9.56740e-15
  9535.9900 2.63352e-13 9.55622e-15
  9538.7600 2.63862e-13 9.56762e-15
  9541.5200 2.68721e-13 9.69804e-15
  9544.2900 2.65452e-13 9.80181e-15
  9547.0500 2.60757e-13 9.63551e-15
  9549.8200 2.54032e-13 9.39780e-15
  9552.5800 2.53134e-13 9.30949e-15
  9555.3500 2.49008e-13 9.12812e-15
  9558.1200 2.51140e-13 9.00935e-15
  9560.8800 2.53233e-13 9.22213e-15
  9563.6500 2.56682e-13 9.29823e-15
  9566.4100 2.56529e-13 9.33785e-15
  9569.1800 2.58315e-13 9.31944e-15
  9571.9400 2.54394e-13 9.32997e-15
  9574.7100 2.54644e-13 9.16962e-15
  9577.4700 2.53737e-13 9.03990e-15
  9580.2400 2.56228e-13 9.06406e-15
  9583.0000 2.54439e-13 9.03804e-15
  9585.7700 2.53102e-13 9.07683e-15
  9588.5400 2.51038e-13 8.98976e-15
  9591.3000 2.52180e-13 9.08226e-15
  9594.0700 2.46842e-13 8.95100e-15
  9596.8300 2.45102e-13 8.87170e-15
  9599.6000 2.43054e-13 8.77528e-15
  9602.3600 2.45457e-13 8.75346e-15
  9605.1300 2.42471e-13 8.69722e-15
  9607.8900 2.41242e-13 8.55944e-15
  9610.6600 2.38483e-13 8.54419e-15
  9613.4300 2.37574e-13 8.45544e-15
  9616.1900 2.36893e-13 8.36952e-15
  9618.9600 2.39270e-13 8.46097e-15
  9621.7200 2.34783e-13 8.40259e-15
  9624.4900 2.31768e-13 8.28155e-15
  9627.2500 2.28119e-13 8.22776e-15
  9630.0200 2.27801e-13 8.15316e-15
  9632.7800 2.24423e-13 8.01058e-15
  9635.5500 2.26125e-13 7.94634e-15
  9638.3100 2.25128e-13 8.00409e-15
  9641.0800 2.22031e-13 7.92230e-15
  9643.8500 2.16580e-13 7.79559e-15
  9646.6100 2.17292e-13 7.78185e-15
  9649.3800 2.15508e-13 7.74632e-15
  9652.1400 2.13718e-13 7.62832e-15
  9654.9100 2.11159e-13 7.55660e-15
  9657.6700 2.11886e-13 7.54416e-15
  9660.4400 2.08231e-13 7.43785e-15
  9663.2000 2.07515e-13 7.40423e-15
  9665.9700 2.02383e-13 7.35214e-15
  9668.7400 1.99674e-13 7.21876e-15
  9671.5000 1.95999e-13 7.04253e-15
  9674.2700 1.98849e-13 7.09828e-15
  9677.0300 1.95298e-13 7.02231e-15
  9679.8000 1.94271e-13 6.90481e-15
  9682.5600 1.92930e-13 6.90645e-15
  9685.3300 1.90731e-13 6.81324e-15
  9688.0900 1.86169e-13 6.70093e-15
  9690.8600 1.86562e-13 6.62760e-15
  9692.6000 1.86834e-13 7.31725e-15
  9695.8300 1.85294e-13 6.66547e-15
  9699.0600 1.82006e-13 6.38405e-15
  9702.2900 1.80556e-13 6.41064e-15
  9705.5100 1.79739e-13 6.81283e-15
  9708.7400 1.78996e-13 7.42521e-15
  9711.9700 1.78110e-13 6.94504e-15
  9715.2000 1.74562e-13 6.33480e-15
  9718.4300 1.74097e-13 6.05875e-15
  9721.6600 1.72885e-13 6.16612e-15
  9724.8800 1.73450e-13 6.56831e-15
  9728.1100 1.71372e-13 7.10811e-15
  9731.3400 1.70059e-13 6.62095e-15
  9734.5700 1.69027e-13 6.07702e-15
  9737.8000 1.68620e-13 5.88994e-15
  9741.0200 1.68978e-13 6.01926e-15
  9744.2500 1.67218e-13 6.32857e-15
  9747.4800 1.68333e-13 6.95401e-15
  9750.7100 1.70974e-13 6.59301e-15
  9753.9400 1.69182e-13 6.05711e-15
  9757.1700 1.69819e-13 5.84976e-15
  9760.3900 1.67137e-13 5.91714e-15
  9763.6200 1.68312e-13 6.30469e-15
  9766.8500 1.67889e-13 6.82032e-15
  9770.0800 1.70564e-13 6.40246e-15
  9773.3100 1.69246e-13 5.90211e-15
  9776.5400 1.73943e-13 5.84637e-15
  9779.7600 1.73154e-13 5.91156e-15
  9782.9900 1.77854e-13 6.37500e-15
  9786.2200 1.72305e-13 6.72452e-15
  9789.4500 1.77525e-13 6.38490e-15
  9792.6800 1.78138e-13 6.02394e-15
  9795.9000 1.83397e-13 5.98458e-15
  9799.1300 1.84335e-13 6.13617e-15
  9802.3600 1.85677e-13 6.46085e-15
  9805.5900 1.85797e-13 7.00033e-15
  9808.8200 1.86792e-13 6.56642e-15
  9812.0500 1.92308e-13 6.27684e-15
  9815.2700 1.94835e-13 6.18416e-15
  9818.5000 1.96670e-13 6.31483e-15
  9821.7300 1.96829e-13 6.67606e-15
  9824.9600 1.96173e-13 7.14691e-15
  9828.1900 1.99585e-13 6.80326e-15
  9831.4100 2.02359e-13 6.47362e-15
  9834.6400 2.03288e-13 6.28701e-15
  9837.8700 2.06025e-13 6.47789e-15
  9841.1000 2.10037e-13 6.95963e-15
  9844.3300 2.12048e-13 7.56143e-15
  9847.5600 2.14207e-13 7.11681e-15
  9850.7800 2.18333e-13 6.78923e-15
  9854.0100 2.19355e-13 6.68229e-15
  9857.2400 2.20950e-13 6.80820e-15
  9860.4700 2.21851e-13 7.19177e-15
  9863.7000 2.22770e-13 7.79049e-15
  9866.9200 2.26069e-13 7.30593e-15
  9870.1500 2.29249e-13 7.00825e-15
  9873.3800 2.30470e-13 6.83799e-15
  9876.6100 2.32986e-13 7.04302e-15
  9879.8400 2.35356e-13 7.49670e-15
  9883.0700 2.35774e-13 8.05089e-15
  9886.2900 2.39648e-13 7.60549e-15
  9889.5200 2.43073e-13 7.28269e-15
  9892.7500 2.42859e-13 7.06266e-15
  9895.9800 2.45634e-13 7.26608e-15
  9899.2100 2.48508e-13 7.77960e-15
  9902.4300 2.51133e-13 8.39833e-15
  9905.6600 2.52859e-13 7.84573e-15
  9908.8900 2.55783e-13 7.50539e-15
  9912.1200 2.58952e-13 7.38715e-15
  9915.3500 2.60353e-13 7.58645e-15
  9918.5800 2.64400e-13 8.07034e-15
  9921.8000 2.69844e-13 8.81845e-15
  9925.0300 2.71890e-13 8.23180e-15
  9928.2600 2.72826e-13 7.78354e-15
  9931.4900 2.74598e-13 7.71348e-15
  9934.7200 2.78597e-13 7.95423e-15
  9937.9500 2.83010e-13 8.50291e-15
  9941.1700 2.86769e-13 9.17346e-15
  9944.4000 2.86695e-13 8.52658e-15
  9947.6300 2.88407e-13 8.09933e-15
  9950.8600 2.92353e-13 8.03105e-15
  9954.0900 2.94549e-13 8.28012e-15
  9957.3100 2.97622e-13 8.81097e-15
  9960.5400 2.97596e-13 9.27171e-15
  9963.7700 2.97221e-13 8.65701e-15
  9967.0000 3.01303e-13 8.28859e-15
  9970.2300 3.03584e-13 8.25156e-15
  9973.4600 3.04629e-13 8.42377e-15
  9976.6800 3.06083e-13 8.92742e-15
  9979.9100 3.07868e-13 9.43148e-15
  9983.1400 3.09020e-13 8.85391e-15
  9986.3700 3.10100e-13 8.43772e-15
  9989.6000 3.12701e-13 8.35191e-15
  9992.8200 3.13709e-13 8.55730e-15
  9996.0500 3.15359e-13 9.07831e-15
  9999.2800 3.14961e-13 9.49059e-15
 10002.5000 3.17061e-13 8.98000e-15
 10005.7000 3.15897e-13 8.46321e-15
 10009.0000 3.17712e-13 8.37671e-15
 10012.2000 3.21885e-13 8.70971e-15
 10015.4000 3.23481e-13 9.25397e-15
 10018.7000 3.23276e-13 9.67305e-15
 10021.9000 3.24269e-13 9.03811e-15
 10025.1000 3.25082e-13 8.67800e-15
 10028.3000 3.25089e-13 8.53229e-15
 10031.6000 3.22432e-13 8.66826e-15
 10034.8000 3.21704e-13 9.13104e-15
 10038.0000 3.19064e-13 9.44006e-15
 10041.2000 3.19891e-13 8.85603e-15
 10044.5000 3.19540e-13 8.45780e-15
 10047.7000 3.17035e-13 8.30748e-15
 10050.9000 3.16377e-13 8.49339e-15
 10054.2000 3.16098e-13 8.93582e-15
 10057.4000 3.13570e-13 9.18966e-15
 10060.6000 3.13177e-13 8.62956e-15
 10063.8000 3.10610e-13 8.19684e-15
 10067.1000 3.09679e-13 8.08405e-15
 10070.3000 3.06895e-13 8.22799e-15
 10073.5000 3.05804e-13 8.64186e-15
 10076.8000 3.03216e-13 8.85512e-15
 10080.0000 3.03090e-13 8.30807e-15
 10083.2000 3.02990e-13 7.93720e-15
 10086.4000 2.99176e-13 7.80090e-15
 10089.7000 2.96778e-13 7.90562e-15
 10092.9000 2.96086e-13 8.34626e-15
 10096.1000 2.94216e-13 8.51702e-15
 10099.4000 2.91087e-13 7.91834e-15
 10102.6000 2.90552e-13 7.53763e-15
 10105.8000 3.05723e-13 8.97013e-15
 10109.0000 2.99680e-13 9.69354e-15
 10112.3000 2.86792e-13 8.87964e-15
 10115.5000 2.81176e-13 8.09235e-15
 10118.7000 2.79882e-13 7.62017e-15
 10122.0000 2.77919e-13 7.28270e-15
 10125.2000 2.72971e-13 7.11695e-15
 10128.4000 2.70506e-13 7.19971e-15
 10131.6000 2.68899e-13 7.58988e-15
 10134.9000 2.65582e-13 7.63795e-15
 10138.1000 2.63351e-13 7.15838e-15
 10141.3000 2.61436e-13 6.82993e-15
 10144.6000 2.60072e-13 6.74188e-15
 10147.8000 2.58936e-13 6.92372e-15
 10151.0000 2.57023e-13 7.27286e-15
 10154.2000 2.55833e-13 7.35631e-15
 10157.5000 2.53932e-13 6.92632e-15
 10160.7000 2.51944e-13 6.59523e-15
 10163.9000 2.51493e-13 6.55073e-15
 10167.1000 2.50187e-13 6.70481e-15
 10170.4000 2.49068e-13 7.04052e-15
 10173.6000 2.47398e-13 7.10146e-15
 10176.8000 2.45473e-13 6.65616e-15
 10180.1000 2.44459e-13 6.38967e-15
 10183.3000 2.43740e-13 6.32987e-15
 10186.5000 2.41620e-13 6.45976e-15
 10189.7000 2.42487e-13 6.81829e-15
 10193.0000 2.41873e-13 6.91204e-15
 10196.2000 2.40371e-13 6.50702e-15
 10199.4000 2.39640e-13 6.23897e-15
 10202.7000 2.38693e-13 6.20925e-15
 10205.9000 2.38222e-13 6.35014e-15
 10209.1000 2.38522e-13 6.72749e-15
 10212.3000 2.37908e-13 6.78772e-15
 10215.6000 2.37729e-13 6.40437e-15
 10218.8000 2.36070e-13 6.15922e-15
 10222.0000 2.35011e-13 6.07444e-15
 10225.3000 2.34897e-13 6.26180e-15
 10228.5000 2.35654e-13 6.62368e-15
 10231.7000 2.35483e-13 6.67373e-15
 10234.9000 2.34302e-13 6.27887e-15
 10238.2000 2.35135e-13 6.07980e-15
 10241.4000 2.35963e-13 6.10326e-15
 10244.6000 2.35462e-13 6.26142e-15
 10247.9000 2.35333e-13 6.59356e-15
 10251.1000 2.33688e-13 6.58233e-15
 10254.3000 2.33362e-13 6.21632e-15
 10257.5000 2.33018e-13 6.03363e-15
 10260.8000 2.32848e-13 5.97407e-15
 10264.0000 2.32233e-13 6.16819e-15
 10267.2000 2.31771e-13 6.46734e-15
 10270.5000 2.31003e-13 6.46371e-15
 10273.7000 2.32110e-13 6.17225e-15
 10276.9000 2.32933e-13 5.98629e-15
 10280.1000 2.32951e-13 5.98638e-15
 10283.4000 2.31885e-13 6.13360e-15
 10286.6000 2.31143e-13 6.45184e-15
 10289.8000 2.30857e-13 6.45297e-15
 10293.0000 2.30526e-13 6.10261e-15
 10296.3000 2.29902e-13 5.89524e-15
 10299.5000 2.30742e-13 5.91487e-15
 10302.7000 2.30016e-13 6.08477e-15
 10306.0000 2.30069e-13 6.39095e-15
 10309.2000 2.30399e-13 6.39477e-15
 10312.4000 2.30676e-13 6.10906e-15
 10315.6000 2.29576e-13 5.86422e-15
 10318.9000 2.29588e-13 5.87352e-15
 10322.1000 2.29446e-13 6.03660e-15
 10325.3000 2.29483e-13 6.37860e-15
 10328.6000 2.29751e-13 6.37216e-15
 10331.8000 2.28837e-13 6.01427e-15
 10335.0000 2.27827e-13 5.81122e-15
 10338.2000 2.28844e-13 5.83782e-15
 10341.5000 2.28671e-13 6.03340e-15
 10344.7000 2.28350e-13 6.32090e-15
 10347.9000 2.28112e-13 6.28892e-15
 10351.2000 2.28152e-13 5.97946e-15
 10354.4000 2.28777e-13 5.81260e-15
 10357.6000 2.28773e-13 5.83051e-15
 10360.8000 2.28174e-13 5.97650e-15
 10364.1000 2.27979e-13 6.33294e-15
 10367.3000 2.27150e-13 6.23953e-15
 10370.5000 2.27798e-13 5.95653e-15
 10373.8000 2.28143e-13 5.80067e-15
 10377.0000 2.28301e-13 5.80203e-15
 10380.2000 2.28232e-13 5.99320e-15
 10383.4000 2.28490e-13 6.31130e-15
 10386.7000 2.28314e-13 6.22625e-15
 10389.9000 2.29387e-13 5.95471e-15
 10393.1000 2.30462e-13 5.82180e-15
 10396.4000 2.29973e-13 5.83112e-15
 10399.6000 2.31810e-13 6.05890e-15
 10402.8000 2.32412e-13 6.42999e-15
 10406.0000 2.32264e-13 6.32620e-15
 10409.3000 2.33035e-13 6.02882e-15
 10412.5000 2.33506e-13 5.90092e-15
 10415.7000 2.33278e-13 5.88216e-15
 10418.9000 2.33114e-13 6.08920e-15
 10422.2000 2.33235e-13 6.39944e-15
 10425.4000 2.34152e-13 6.32707e-15
 10428.6000 2.36778e-13 6.10888e-15
 10431.9000 2.37595e-13 5.95380e-15
 10435.1000 2.37235e-13 5.97919e-15
 10438.3000 2.37221e-13 6.14762e-15
 10441.5000 2.38502e-13 6.52452e-15
 10444.8000 2.39657e-13 6.45406e-15
 10448.0000 2.38813e-13 6.10825e-15
 10451.2000 2.38024e-13 5.96411e-15
 10454.5000 2.39319e-13 6.05855e-15
 10457.7000 2.42345e-13 6.32543e-15
 10460.9000 2.42739e-13 6.63811e-15
 10464.1000 2.43188e-13 6.50255e-15
 10467.4000 2.43371e-13 6.20856e-15
 10470.6000 2.42877e-13 6.03927e-15
 10473.8000 2.43099e-13 6.09594e-15
 10477.1000 2.44396e-13 6.33781e-15
 10480.3000 2.46053e-13 6.70710e-15
 10483.5000 2.46437e-13 6.58248e-15
 10486.7000 2.46684e-13 6.26705e-15
 10490.0000 2.45753e-13 6.12688e-15
 10493.2000 2.45476e-13 6.10461e-15
 10496.4000 2.46158e-13 6.38141e-15
 10499.7000 2.46557e-13 6.69310e-15
 10502.9000 2.46898e-13 6.56284e-15
 10506.1000 2.46267e-13 6.25545e-15
 10509.3000 2.45647e-13 6.09869e-15
 10512.6000 2.45529e-13 6.15963e-15
 10515.8000 2.44764e-13 6.33496e-15
 10519.0000 2.45005e-13 6.68761e-15
 10522.3000 2.45108e-13 6.51420e-15
 10525.5000 2.44807e-13 6.21950e-15
 10528.7000 2.44634e-13 6.09289e-15
 10531.9000 2.44251e-13 6.11417e-15
 10535.2000 2.42920e-13 6.30658e-15
 10538.4000 2.42440e-13 6.63018e-15
 10541.6000 2.41609e-13 6.41192e-15
 10544.8000 2.39948e-13 6.10655e-15
 10548.1000 2.37879e-13 5.93489e-15
 10551.3000 2.36282e-13 5.96926e-15
 10554.5000 2.35829e-13 6.17555e-15
 10557.8000 2.34191e-13 6.46676e-15
 10561.0000 2.32712e-13 6.21924e-15
 10564.2000 2.31143e-13 5.91880e-15
 10567.4000 2.28718e-13 5.74657e-15
 10570.7000 2.27180e-13 5.77131e-15
 10573.9000 2.25048e-13 5.92986e-15
 10577.1000 2.23203e-13 6.19305e-15
 10580.4000 2.21614e-13 5.95698e-15
 10583.6000 2.19054e-13 5.65471e-15
 10586.8000 2.16139e-13 5.46812e-15
 10590.0000 2.14391e-13 5.51086e-15
 10593.3000 2.12796e-13 5.67209e-15
 10596.5000 2.10208e-13 5.90645e-15
 10599.7000 2.08584e-13 5.65694e-15
 10603.0000 2.06031e-13 5.36432e-15
 10606.2000 2.03507e-13 5.21194e-15
 10609.4000 2.02096e-13 5.24587e-15
 10612.6000 1.99769e-13 5.41052e-15
 10615.9000 1.96381e-13 5.59477e-15
 10619.1000 1.93911e-13 5.32211e-15
 10622.3000 1.90878e-13 5.02199e-15
 10625.6000 1.89358e-13 4.92520e-15
 10628.8000 1.86224e-13 4.91157e-15
 10632.0000 1.83386e-13 5.03104e-15
 10635.2000 1.80608e-13 5.21796e-15
 10638.5000 1.78068e-13 4.96183e-15
 10641.7000 1.77505e-13 4.82700e-15
 10644.9000 1.77453e-13 4.71728e-15
 10648.2000 1.75034e-13 4.86646e-15
 10651.4000 1.66838e-13 4.67174e-15
 10654.6000 1.64613e-13 4.83837e-15
 10657.8000 1.62222e-13 4.58021e-15
 10661.1000 1.59118e-13 4.33455e-15
 10664.3000 1.58439e-13 4.27159e-15
 10667.5000 1.54789e-13 4.24577e-15
 10670.7000 1.52293e-13 4.33291e-15
 10674.0000 1.50171e-13 4.51605e-15
 10677.2000 1.47039e-13 4.22575e-15
 10680.4000 1.45706e-13 4.06352e-15
 10683.7000 1.43956e-13 3.97108e-15
 10686.9000 1.40400e-13 3.91413e-15
 10690.1000 1.39033e-13 4.06156e-15
 10693.3000 1.35450e-13 4.14128e-15
 10696.6000 1.32703e-13 3.90221e-15
 10699.8000 1.30452e-13 3.70368e-15
 10703.0000 1.28575e-13 3.61458e-15
 10706.3000 1.27703e-13 3.65007e-15
 10709.5000 1.26482e-13 3.75931e-15
 10712.7000 1.24781e-13 3.88152e-15
 10715.9000 1.24095e-13 3.70830e-15
 10719.2000 1.22604e-13 3.53840e-15
 10722.4000 1.21499e-13 3.46334e-15
 10725.6000 1.20509e-13 3.49467e-15
 10728.9000 1.20084e-13 3.62519e-15
 10732.1000 1.18707e-13 3.73851e-15
 10735.3000 1.18292e-13 3.56578e-15
 10738.5000 1.16434e-13 3.39586e-15
 10741.8000 1.15754e-13 3.33457e-15
 10745.0000 1.16080e-13 3.39898e-15
 10748.2000 1.16159e-13 3.54241e-15
 10751.5000 1.15928e-13 3.68258e-15
 10754.7000 1.16223e-13 3.52424e-15
 10757.9000 1.15588e-13 3.38531e-15
 10761.1000 1.15520e-13 3.34267e-15
 10764.4000 1.15269e-13 3.38186e-15
 10767.6000 1.15919e-13 3.52193e-15
 10770.8000 1.16508e-13 3.70662e-15
 10774.1000 1.17408e-13 3.59282e-15
 10777.3000 1.19169e-13 3.52312e-15
 10780.5000 1.20977e-13 3.51693e-15
 10783.7000 1.24905e-13 3.73193e-15
 10787.0000 1.23555e-13 3.98412e-15
 10790.2000 1.18904e-13 3.75826e-15
 10793.4000 1.19239e-13 3.62951e-15
 10796.6000 1.20652e-13 3.52710e-15
 10799.9000 1.22014e-13 3.52118e-15
 10803.1000 1.22832e-13 3.59803e-15
 10806.3000 1.24089e-13 3.75978e-15
 10809.6000 1.24866e-13 3.91210e-15
 10812.8000 1.25905e-13 3.76493e-15
 10816.0000 1.26141e-13 3.65726e-15
 10819.2000 1.27656e-13 3.65446e-15
 10822.5000 1.27886e-13 3.70591e-15
 10825.7000 1.29334e-13 3.88355e-15
 10828.9000 1.29967e-13 4.03931e-15
 10832.2000 1.31521e-13 3.91263e-15
 10835.4000 1.32041e-13 3.80473e-15
 10838.6000 1.33920e-13 5.35760e-15
 10841.8000 1.33726e-13 5.33619e-15
 10845.1000 1.35857e-13 5.41594e-15
 10848.3000 1.35720e-13 5.40970e-15
 10851.5000 1.38097e-13 5.49622e-15
 10854.8000 1.37869e-13 5.48873e-15
 10858.0000 1.39636e-13 5.54924e-15
 10861.2000 1.39191e-13 5.53905e-15
 10864.4000 1.41288e-13 5.62054e-15
 10867.7000 1.40820e-13 5.59422e-15
 10870.9000 1.42396e-13 5.64703e-15
 10874.1000 1.41329e-13 5.58897e-15
 10877.4000 1.42260e-13 5.61984e-15
 10880.6000 1.41726e-13 5.61353e-15
 10883.8000 1.43122e-13 5.64996e-15
 10887.0000 1.42989e-13 5.64611e-15
 10890.3000 1.44766e-13 5.71784e-15
 10893.5000 1.43500e-13 5.67389e-15
 10896.7000 1.44254e-13 5.69745e-15
 10900.0000 1.44001e-13 5.68750e-15
 10903.2000 1.45678e-13 5.74941e-15
 10906.4000 1.44569e-13 5.71522e-15
 10909.6000 1.45500e-13 5.74662e-15
 10912.9000 1.44502e-13 5.72092e-15
 10916.1000 1.45858e-13 5.76416e-15
 10919.3000 1.43909e-13 5.69713e-15
 10922.5000 1.45172e-13 5.74018e-15
 10925.8000 1.43393e-13 5.67894e-15
 10929.0000 1.44014e-13 5.72058e-15
 10932.2000 1.43006e-13 5.69402e-15
 10935.5000 1.44552e-13 5.74168e-15
 10938.7000 1.42302e-13 5.65704e-15
 10941.9000 1.42860e-13 5.66951e-15
 10945.1000 1.40290e-13 5.57478e-15
 10948.4000 1.40110e-13 5.56112e-15
 10951.6000 1.37998e-13 5.48058e-15
 10954.8000 1.37890e-13 5.47161e-15
 10958.1000 1.35388e-13 5.37957e-15
 10961.3000 1.35222e-13 5.36633e-15
 10964.5000 1.33292e-13 5.29322e-15
 10967.7000 1.33998e-13 5.31183e-15
 10971.0000 1.31981e-13 5.23714e-15
 10974.2000 1.31754e-13 5.22205e-15
 10977.4000 1.29034e-13 5.11632e-15
 10980.7000 1.29629e-13 5.12224e-15
 10983.9000 1.27039e-13 5.04671e-15
 10987.1000 1.27135e-13 5.03571e-15
 10990.3000 1.24503e-13 4.92491e-15
 10993.6000 1.24401e-13 4.92116e-15
 10996.8000 1.22553e-13 4.87268e-15
 11000.0000 1.23582e-13 4.91342e-15
 11003.3000 1.21673e-13 4.84782e-15
 11006.5000 1.22291e-13 4.86049e-15
 11009.7000 1.19761e-13 4.76365e-15
 11012.9000 1.19769e-13 4.75469e-15
 11016.2000 1.17878e-13 4.67845e-15
 11019.4000 1.18407e-13 4.70457e-15
 11022.6000 1.16538e-13 4.64575e-15
 11025.9000 1.16859e-13 4.65016e-15
 11029.1000 1.15317e-13 4.59227e-15
 11032.3000 1.16446e-13 4.64317e-15
 11035.5000 1.13947e-13 4.55142e-15
 11038.8000 1.14439e-13 4.56214e-15
 11042.0000 1.12728e-13 4.49354e-15
 11045.2000 1.13717e-13 4.52359e-15
 11048.4000 1.12095e-13 4.48117e-15
 11051.7000 1.12851e-13 4.50730e-15
 11054.9000 1.10521e-13 4.40243e-15
 11058.1000 1.10657e-13 4.39525e-15
 11061.4000 1.09001e-13 4.33145e-15
 11064.6000 1.10870e-13 4.41966e-15
 11067.8000 1.09819e-13 4.40341e-15
 11071.0000 1.11434e-13 4.46006e-15
 11074.3000 1.09377e-13 4.35964e-15
 11077.5000 1.09344e-13 4.34631e-15
 11080.7000 1.07235e-13 4.26061e-15
 11084.0000 1.09077e-13 4.33250e-15
 11087.2000 1.08666e-13 4.34882e-15
 11090.4000 1.10358e-13 4.42418e-15
 11093.6000 1.09115e-13 4.35962e-15
 11096.9000 1.09599e-13 4.36580e-15
 11100.1000 1.07111e-13 4.25948e-15
 11103.3000 1.07794e-13 4.27206e-15
 11106.6000 1.05532e-13 4.19123e-15
 11109.8000 1.07184e-13 4.26694e-15
 11113.0000 1.06651e-13 4.26868e-15
 11116.2000 1.09299e-13 4.38632e-15
 11119.5000 1.08132e-13 4.34350e-15
 11122.7000 1.08423e-13 4.32813e-15
 11125.9000 1.05162e-13 4.17773e-15
 11129.2000 1.05109e-13 4.17049e-15
 11132.4000 1.04020e-13 4.14884e-15
 11135.6000 1.06426e-13 4.28990e-15
 11138.8000 1.07935e-13 4.39116e-15
 11142.1000 1.09852e-13 4.47094e-15
 11145.3000 1.06143e-13 4.27935e-15
 11148.5000 1.04817e-13 4.18926e-15
 11151.8000 1.02586e-13 4.10312e-15
 11155.0000 1.04198e-13 4.19827e-15
 11158.2000 1.02902e-13 4.18995e-15
 11161.4000 1.03045e-13 4.20353e-15
 11164.7000 9.99963e-14 4.10041e-15
 11167.9000 1.00803e-13 4.20008e-15
 11171.1000 1.04265e-13 4.44130e-15
 11174.3000 1.10020e-13 4.71291e-15
 11177.6000 1.06615e-13 4.51059e-15
 11180.8000 1.03624e-13 4.28910e-15
 11184.0000 9.86805e-14 4.03060e-15
 11187.3000 9.64601e-14 3.93286e-15
 11190.5000 9.50406e-14 3.93537e-15
 11193.7000 9.78782e-14 4.10166e-15
 11196.9000 9.73580e-14 4.11763e-15
 11200.2000 1.00294e-13 4.24779e-15
 11203.4000 9.79449e-14 4.13233e-15
 11206.6000 9.70786e-14 4.07096e-15
 11209.9000 9.50774e-14 3.97313e-15
 11213.1000 9.36577e-14 3.89181e-15
 11216.3000 8.76470e-14 3.63275e-15
 11219.5000 8.55399e-14 3.60607e-15
 11222.8000 8.53872e-14 3.71970e-15
 11226.0000 9.08502e-14 4.05045e-15
 11229.2000 9.26323e-14 4.20845e-15
 11232.5000 9.27777e-14 4.16506e-15
 11235.7000 8.83127e-14 3.89433e-15
 11238.9000 8.67654e-14 3.76395e-15
 11242.1000 8.51681e-14 3.69993e-15
 11245.4000 8.63651e-14 3.73746e-15
 11248.6000 7.98507e-14 3.41117e-15
 11251.8000 7.49409e-14 3.18754e-15
 11255.1000 7.22758e-14 3.17771e-15
 11258.3000 7.56588e-14 3.45640e-15
 11261.5000 8.04558e-14 3.73790e-15
 11264.7000 8.44129e-14 3.84954e-15
 11268.0000 7.78265e-14 3.48406e-15
 11271.2000 7.34004e-14 3.21105e-15
 11274.4000 6.91435e-14 3.01848e-15
 11276.8000 6.85018e-14 3.04095e-15
 11280.7000 6.82931e-14 2.92008e-15
 11284.6000 7.20522e-14 3.13871e-15
 11288.5000 6.82135e-14 3.37669e-15
 11292.3000 6.34329e-14 3.14598e-15
 11296.2000 6.31013e-14 2.92926e-15
 11300.1000 6.21883e-14 2.77111e-15
 11304.0000 6.32823e-14 2.84071e-15
 11307.8000 6.36702e-14 3.00207e-15
 11311.7000 5.98798e-14 2.79462e-15
 11315.6000 5.70116e-14 2.44091e-15
 11319.5000 5.45752e-14 2.24637e-15
 11323.3000 5.30515e-14 2.26499e-15
 11327.2000 5.17586e-14 2.42148e-15
 11331.1000 5.05081e-14 2.52671e-15
 11335.0000 4.85750e-14 2.29397e-15
 11338.8000 4.67265e-14 2.35433e-15
 11342.7000 4.57173e-14 2.43980e-15
 11346.6000 4.55331e-14 2.66565e-15
 11350.5000 4.93902e-14 3.22583e-15
 11354.4000 5.30600e-14 2.82601e-15
 11358.2000 5.10428e-14 2.44552e-15
 11362.1000 4.81845e-14 2.29632e-15
 11366.0000 4.67698e-14 2.31067e-15
 11369.9000 4.51777e-14 2.24420e-15
 11373.7000 4.30454e-14 1.94259e-15
 11377.6000 4.11227e-14 1.79393e-15
 11381.5000 4.11287e-14 1.84333e-15
 11385.4000 4.11215e-14 2.00444e-15
 11389.2000 4.12503e-14 2.06218e-15
 11393.1000 4.13576e-14 1.88807e-15
 11397.0000 4.04339e-14 1.74580e-15
 11400.9000 3.96398e-14 1.77372e-15
 11404.7000 3.94773e-14 1.92981e-15
 11408.6000 3.95614e-14 2.00341e-15
 11412.5000 3.94833e-14 1.84322e-15
 11416.4000 3.88536e-14 1.75405e-15
 11420.3000 4.01527e-14 1.83135e-15
 11424.1000 4.02114e-14 1.93958e-15
 11428.0000 3.93865e-14 1.93590e-15
 11431.9000 3.98905e-14 1.78720e-15
 11435.8000 3.76099e-14 1.62938e-15
 11439.6000 3.77018e-14 1.70812e-15
 11443.5000 3.82214e-14 1.90713e-15
 11447.4000 3.95796e-14 2.06588e-15
 11451.3000 4.08558e-14 1.94276e-15
 11455.1000 4.05364e-14 1.83331e-15
 11459.0000 4.04257e-14 1.87304e-15
 11462.9000 4.02122e-14 2.00334e-15
 11466.8000 3.97690e-14 2.04898e-15
 11470.6000 4.06539e-14 1.96322e-15
 11474.5000 4.27776e-14 1.95743e-15
 11478.4000 4.48230e-14 2.05217e-15
 11482.3000 4.33076e-14 2.06611e-15
 11486.2000 4.23946e-14 1.97287e-15
 11490.0000 4.17659e-14 1.81113e-15
 11493.9000 4.12410e-14 1.75974e-15
 11497.8000 4.34228e-14 1.89861e-15
 11501.7000 4.43378e-14 2.08471e-15
 11505.5000 4.46355e-14 2.11333e-15
 11509.4000 4.54947e-14 1.92772e-15
 11513.3000 4.44213e-14 1.81343e-15
 11517.2000 4.46487e-14 1.87922e-15
 11521.0000 4.44274e-14 2.01635e-15
 11524.9000 4.49000e-14 2.07230e-15
 11528.8000 4.58633e-14 1.97633e-15
 11532.7000 4.68016e-14 1.91621e-15
 11536.5000 4.70456e-14 1.95650e-15
 11540.4000 4.59725e-14 2.03857e-15
 11544.3000 4.65902e-14 2.08864e-15
 11548.2000 4.80342e-14 1.97893e-15
 11552.1000 4.76111e-14 1.88008e-15
 11555.9000 4.75072e-14 1.91764e-15
 11559.8000 4.69590e-14 2.01862e-15
 11563.7000 4.77977e-14 2.05230e-15
 11567.6000 4.88819e-14 1.93273e-15
 11571.4000 4.80332e-14 1.83305e-15
 11575.3000 4.81539e-14 1.88980e-15
 11579.2000 4.77632e-14 2.00831e-15
 11583.1000 4.79171e-14 2.01133e-15
 11586.9000 4.80183e-14 1.87599e-15
 11590.8000 4.68517e-14 1.79524e-15
 11594.7000 4.77554e-14 1.86953e-15
 11598.6000 4.73974e-14 1.98922e-15
 11602.4000 4.71889e-14 1.96300e-15
 11606.3000 4.77459e-14 1.85703e-15
 11610.2000 4.73493e-14 1.78567e-15
 11614.1000 4.74911e-14 1.84478e-15
 11618.0000 4.64868e-14 1.92307e-15
 11621.8000 4.61051e-14 1.88294e-15
 11625.7000 4.60066e-14 1.75556e-15
 11629.6000 4.54830e-14 1.69528e-15
 11633.5000 4.51975e-14 1.74401e-15
 11637.3000 4.44105e-14 1.82121e-15
 11641.2000 4.39109e-14 1.77756e-15
 11645.1000 4.36381e-14 1.66235e-15
 11649.0000 4.31771e-14 1.60930e-15
 11652.8000 4.29117e-14 1.66938e-15
 11656.7000 4.23673e-14 1.77176e-15
 11660.6000 4.16682e-14 1.70008e-15
 11664.5000 4.09466e-14 1.67319e-15
 11668.3000 4.03493e-14 1.57993e-15
 11672.2000 3.97543e-14 1.55862e-15
 11676.1000 3.86401e-14 1.63225e-15
 11680.0000 3.80708e-14 1.57387e-15
 11683.9000 3.75085e-14 1.46101e-15
 11687.7000 3.67793e-14 1.41531e-15
 11691.6000 3.66353e-14 1.47111e-15
 11695.5000 3.56318e-14 1.53700e-15
 11699.4000 3.46954e-14 1.45931e-15
 11703.2000 3.41488e-14 1.36340e-15
 11707.1000 3.32384e-14 1.31106e-15
 11711.0000 3.29566e-14 1.35566e-15
 11714.9000 3.23734e-14 1.42831e-15
 11718.7000 3.16168e-14 1.35919e-15
 11722.6000 3.09343e-14 1.26269e-15
 11726.5000 2.99203e-14 1.21446e-15
 11730.4000 2.93025e-14 1.24483e-15
 11734.2000 2.87788e-14 1.31616e-15
 11738.1000 2.83710e-14 1.26745e-15
 11742.0000 2.74243e-14 1.17232e-15
 11745.9000 2.67848e-14 1.13073e-15
 11749.7000 2.64953e-14 1.16789e-15
 11753.6000 2.54593e-14 1.20769e-15
 11757.5000 2.45258e-14 1.12842e-15
 11761.4000 2.44044e-14 1.05435e-15
 11765.3000 2.37157e-14 1.01589e-15
 11769.1000 2.31359e-14 1.04080e-15
 11773.0000 2.25904e-14 1.10519e-15
 11776.9000 2.21629e-14 1.05760e-15
 11780.8000 2.19471e-14 1.00013e-15
 11784.6000 2.17685e-14 9.76654e-16
 11788.5000 2.13402e-14 1.00006e-15
 11792.4000 2.05420e-14 1.03897e-15
 11796.3000 2.01761e-14 9.85418e-16
 11800.1000 1.99141e-14 9.23971e-16
 11804.0000 1.95298e-14 8.96238e-16
 11807.9000 1.90619e-14 9.17233e-16
 11811.8000 1.87660e-14 9.76507e-16
 11815.6000 1.80653e-14 9.21664e-16
 11819.5000 1.82895e-14 8.85340e-16
 11823.4000 1.81325e-14 8.72491e-16
 11827.3000 1.83519e-14 9.08720e-16
 11831.2000 1.79280e-14 9.47879e-16
 11835.0000 1.76627e-14 8.84272e-16
 11838.9000 1.71797e-14 8.25636e-16
 11842.8000 1.70762e-14 8.16188e-16
 11846.7000 1.71548e-14 8.56089e-16
 11850.5000 1.72255e-14 9.20477e-16
 11854.4000 1.69423e-14 8.65082e-16
 11858.3000 1.69357e-14 8.15524e-16
 11862.2000 1.66120e-14 7.91556e-16
 11866.0000 1.66945e-14 8.27739e-16
 11869.9000 1.68169e-14 8.92156e-16
 11873.8000 1.67740e-14 8.60366e-16
 11877.7000 1.69649e-14 8.21082e-16
 11881.5000 1.68308e-14 8.13077e-16
 11885.4000 1.72367e-14 8.57613e-16
 11889.3000 1.71548e-14 9.08549e-16
 11893.2000 1.70683e-14 8.55945e-16
 11897.1000 1.66854e-14 8.19646e-16
 11900.9000 1.73693e-14 8.09531e-16
 11904.8000 1.75444e-14 8.46307e-16
 11908.7000 1.76256e-14 9.06844e-16
 11912.6000 1.77344e-14 8.68830e-16
 11916.4000 1.82583e-14 8.39287e-16
 11920.3000 1.83334e-14 8.30156e-16
 11924.2000 1.82570e-14 8.61101e-16
 11928.1000 1.85293e-14 9.28608e-16
 11931.9000 1.86927e-14 8.85159e-16
 11935.8000 1.86043e-14 8.44718e-16
 11939.7000 1.88180e-14 8.41156e-16
 11943.6000 1.86236e-14 9.39104e-16
 11947.4000 1.89244e-14 9.80201e-16
 11951.3000 1.91877e-14 9.01722e-16
 11955.2000 1.97638e-14 8.70022e-16
 11959.1000 1.98520e-14 8.68181e-16
 11963.0000 2.02084e-14 9.14005e-16
 11966.8000 2.01789e-14 9.71555e-16
 11970.7000 2.02451e-14 9.20790e-16
 11974.6000 2.04979e-14 8.88374e-16
 11978.5000 2.03792e-14 8.80084e-16
 11982.3000 2.07869e-14 9.33541e-16
 11986.2000 2.08473e-14 9.91316e-16
 11990.1000 2.08982e-14 9.40059e-16
 11994.0000 2.14500e-14 9.18637e-16
 11997.8000 2.14731e-14 9.08951e-16
 12001.7000 2.18431e-14 9.59579e-16
 12005.6000 2.17346e-14 1.01942e-15
 12009.5000 2.20435e-14 9.62237e-16
 12013.3000 2.20001e-14 9.22901e-16
 12017.2000 2.20053e-14 9.22470e-16
 12021.1000 2.23083e-14 9.70318e-16
 12025.0000 2.22072e-14 1.02534e-15
 12028.9000 2.21600e-14 9.58591e-16
 12032.7000 2.23684e-14 9.30052e-16
 12036.6000 2.21716e-14 9.28736e-16
 12040.5000 2.24663e-14 9.80770e-16
 12044.4000 2.27043e-14 1.05030e-15
 12048.2000 2.27290e-14 9.78556e-16
 12052.1000 2.25638e-14 9.33787e-16
 12056.0000 2.27307e-14 9.32597e-16
 12059.9000 2.28718e-14 9.74341e-16
 12063.7000 2.26809e-14 1.02436e-15
 12067.6000 2.25984e-14 9.60868e-16
 12071.5000 2.24851e-14 9.23257e-16
 12075.4000 2.23078e-14 9.18634e-16
 12079.2000 2.24209e-14 9.62296e-16
 12083.1000 2.21552e-14 1.00849e-15
 12087.0000 2.21545e-14 9.45527e-16
 12090.9000 2.20392e-14 9.06588e-16
 12094.8000 2.18170e-14 9.00584e-16
 12098.6000 2.19518e-14 9.40666e-16
 12102.5000 2.19860e-14 9.96793e-16
 12106.4000 2.16344e-14 9.21304e-16
 12110.3000 2.15450e-14 8.86607e-16
 12114.1000 2.12095e-14 8.82321e-16
 12118.0000 2.11669e-14 9.23368e-16
 12121.9000 2.09779e-14 9.63989e-16
 12125.8000 2.06994e-14 8.93576e-16
 12129.6000 2.06765e-14 8.59785e-16
 12133.5000 2.03752e-14 8.55087e-16
 12137.4000 2.01454e-14 8.85578e-16
 12141.3000 1.99923e-14 9.21739e-16
 12145.1000 1.97003e-14 8.61611e-16
 12149.0000 1.96242e-14 8.32249e-16
 12152.9000 1.93478e-14 8.25502e-16
 12156.8000 1.91284e-14 8.56972e-16
 12160.7000 1.86583e-14 8.74915e-16
 12164.5000 1.83748e-14 8.15840e-16
 12168.4000 1.81136e-14 7.84314e-16
 12172.3000 1.79139e-14 7.84365e-16
 12176.2000 1.78707e-14 8.17867e-16
 12180.0000 1.75011e-14 8.38164e-16
 12183.9000 1.72966e-14 7.83763e-16
 12187.8000 1.69061e-14 7.48976e-16
 12191.7000 1.67009e-14 7.50062e-16
 12195.5000 1.64585e-14 7.75208e-16
 12199.4000 1.63991e-14 7.98740e-16
 12203.3000 1.59826e-14 7.43944e-16
 12207.2000 1.57528e-14 7.14282e-16
 12211.0000 1.54188e-14 7.09410e-16
 12214.9000 1.54079e-14 7.38181e-16
 12218.8000 1.52745e-14 7.60461e-16
 12222.7000 1.46868e-14 7.02880e-16
 12226.6000 1.46241e-14 6.79936e-16
 12230.4000 1.46450e-14 6.90539e-16
 12234.3000 1.45205e-14 7.29113e-16
 12238.2000 1.40969e-14 7.19789e-16
 12242.1000 1.41622e-14 6.96749e-16
 12245.9000 1.40067e-14 6.66484e-16
 12249.8000 1.36010e-14 6.52978e-16
 12253.7000 1.36583e-14 6.82612e-16
 12257.6000 1.33967e-14 6.95834e-16
 12261.4000 1.31696e-14 6.52455e-16
 12265.3000 1.30392e-14 6.29875e-16
 12269.2000 1.27730e-14 6.37039e-16
 12273.1000 1.25803e-14 6.79572e-16
 12276.9000 1.32401e-14 6.85106e-16
 12280.8000 1.29899e-14 6.44805e-16
 12284.7000 1.30576e-14 6.27226e-16
 12288.6000 1.30921e-14 6.35451e-16
 12292.5000 1.30379e-14 6.58374e-16
 12296.3000 1.29105e-14 6.69397e-16
 12300.2000 1.30836e-14 6.44531e-16
 12304.1000 1.32752e-14 6.32523e-16
 12308.0000 1.32448e-14 6.38098e-16
 12311.8000 1.33386e-14 6.69107e-16
 12315.7000 1.34720e-14 6.84112e-16
 12319.6000 1.35169e-14 6.54637e-16
 12323.5000 1.36511e-14 6.39113e-16
 12327.3000 1.37648e-14 6.48469e-16
 12331.2000 1.41143e-14 6.87455e-16
 12335.1000 1.41836e-14 7.02065e-16
 12339.0000 1.43058e-14 6.72184e-16
 12342.8000 1.45035e-14 6.62231e-16
 12346.7000 1.46739e-14 6.72667e-16
 12350.6000 1.48653e-14 7.07035e-16
 12354.5000 1.49311e-14 7.20556e-16
 12358.4000 1.52308e-14 6.97170e-16
 12362.2000 1.56491e-14 6.89547e-16
 12366.1000 1.58364e-14 7.04376e-16
 12370.0000 1.61915e-14 7.41692e-16
 12373.9000 1.64515e-14 7.63582e-16
 12377.7000 1.66942e-14 7.32240e-16
 12381.6000 1.70157e-14 7.24817e-16
 12385.5000 1.71368e-14 7.35120e-16
 12389.4000 1.75936e-14 7.78251e-16
 12393.2000 1.80078e-14 8.00150e-16
 12397.1000 1.81902e-14 7.71029e-16
 12401.0000 1.88669e-14 7.70305e-16
 12404.9000 1.92125e-14 7.91311e-16
 12408.7000 1.97355e-14 8.37461e-16
 12412.6000 1.99309e-14 8.55000e-16
 12416.5000 2.04004e-14 8.28293e-16
 12420.4000 2.10952e-14 8.29985e-16
 12424.3000 2.10641e-14 8.34286e-16
 12428.1000 2.15546e-14 8.83340e-16
 12432.0000 2.19688e-14 9.15694e-16
 12435.9000 2.23174e-14 8.72336e-16
 12439.8000 2.30666e-14 8.72851e-16
 12443.6000 2.33208e-14 8.91318e-16
 12447.5000 2.37269e-14 9.39046e-16
 12451.4000 2.39439e-14 9.53043e-16
 12455.3000 2.45522e-14 9.24659e-16
 12459.1000 2.49082e-14 9.18491e-16
 12463.0000 2.53063e-14 9.38613e-16
 12466.9000 2.57411e-14 9.90215e-16
 12470.8000 2.64646e-14 1.01185e-15
 12474.6000 2.61418e-14 9.63848e-16
 12478.5000 2.72875e-14 9.75335e-16
 12482.4000 2.76063e-14 1.01094e-15
 12486.3000 2.80540e-14 1.05264e-15
 12490.2000 2.84947e-14 1.06186e-15
 12494.0000 2.89100e-14 1.02731e-15
 12497.9000 2.95245e-14 1.02608e-15
 12501.8000 3.00924e-14 1.05196e-15
 12505.7000 3.03723e-14 1.10444e-15
 12509.5000 3.09185e-14 1.14851e-15
 12513.4000 3.10458e-14 1.07484e-15
 12517.3000 3.16821e-14 1.07158e-15
 12521.2000 3.20351e-14 1.10009e-15
 12525.0000 3.25576e-14 1.15590e-15
 12528.9000 3.27718e-14 1.16203e-15
 12532.8000 3.35176e-14 1.13513e-15
 12536.7000 3.39489e-14 1.13152e-15
 12540.5000 3.41478e-14 1.14657e-15
 12544.4000 3.47319e-14 1.21191e-15
 12548.3000 3.51394e-14 1.23891e-15
 12552.2000 3.50901e-14 1.17276e-15
 12556.0000 3.57004e-14 1.16591e-15
 12559.9000 3.59453e-14 1.18934e-15
 12563.8000 3.67516e-14 1.25959e-15
 12567.7000 3.69669e-14 1.25962e-15
 12571.6000 3.75073e-14 1.22518e-15
 12575.4000 3.75570e-14 1.21264e-15
 12579.3000 3.82348e-14 1.24680e-15
 12583.2000 3.84064e-14 1.30201e-15
 12587.1000 3.89752e-14 1.30829e-15
 12590.9000 3.93067e-14 1.27672e-15
 12594.8000 3.95137e-14 1.25998e-15
 12598.7000 3.97876e-14 1.28707e-15
 12602.6000 4.01823e-14 1.34894e-15
 12606.4000 4.00172e-14 1.34056e-15
 12610.3000 4.02827e-14 1.29389e-15
 12614.2000 4.04853e-14 1.28877e-15
 12618.1000 4.06686e-14 1.31402e-15
 12621.9000 4.07737e-14 1.37270e-15
 12625.8000 4.11214e-14 1.36907e-15
 12629.7000 4.11648e-14 1.32500e-15
 12633.6000 4.19633e-14 1.33022e-15
 12637.5000 4.17835e-14 1.35234e-15
 12641.3000 4.37721e-14 1.43816e-15
 12645.2000 4.25595e-14 1.74789e-15
 12649.1000 4.32362e-14 1.76887e-15
 12653.0000 4.31080e-14 1.76342e-15
 12656.8000 4.33247e-14 1.76819e-15
 12660.7000 4.32768e-14 1.76755e-15
 12664.6000 4.37975e-14 1.77565e-15
 12668.5000 4.33719e-14 1.75957e-15
 12672.3000 4.40474e-14 1.77788e-15
 12676.2000 4.38556e-14 1.77804e-15
 12680.1000 4.41105e-14 1.80473e-15
 12684.0000 4.35444e-14 1.84481e-15
 12687.8000 4.31445e-14 1.82046e-15
 12691.7000 4.28838e-14 1.81495e-15
 12695.6000 4.34707e-14 1.79893e-15
 12699.5000 4.36625e-14 1.77200e-15
 12703.4000 4.42961e-14 1.77142e-15
 12707.2000 4.39118e-14 1.75721e-15
 12711.1000 4.39918e-14 1.75396e-15
 12715.0000 4.39530e-14 1.74708e-15
 12718.9000 4.44257e-14 1.75595e-15
 12722.7000 4.41571e-14 1.75069e-15
 12726.6000 4.44582e-14 1.75989e-15
 12730.5000 4.41186e-14 1.74510e-15
 12734.4000 4.38803e-14 1.73713e-15
 12738.2000 4.35607e-14 1.72274e-15
 12742.1000 4.37227e-14 1.72336e-15
 12746.0000 4.37433e-14 1.72512e-15
 12749.9000 4.37379e-14 1.71933e-15
 12753.7000 4.33508e-14 1.71094e-15
 12757.6000 4.36555e-14 1.71908e-15
 12761.5000 4.31728e-14 1.69731e-15
 12765.4000 4.32404e-14 1.70083e-15
 12769.3000 4.28848e-14 1.69160e-15
 12773.1000 4.29866e-14 1.69045e-15
 12777.0000 4.23913e-14 1.66868e-15
 12780.9000 4.24657e-14 1.67259e-15
 12784.8000 4.20251e-14 1.65581e-15
 12788.6000 4.23546e-14 1.66370e-15
 12792.5000 4.21292e-14 1.66259e-15
 12796.4000 4.20127e-14 1.65355e-15
 12800.3000 4.15215e-14 1.63879e-15
 12804.1000 4.18169e-14 1.65087e-15
 12808.0000 4.14731e-14 1.63902e-15
 12811.9000 4.16426e-14 1.64314e-15
 12815.8000 4.12060e-14 1.62713e-15
 12819.6000 4.11898e-14 1.62497e-15
 12823.5000 4.06955e-14 1.60902e-15
 12827.4000 4.05189e-14 1.60379e-15
 12831.3000 4.00667e-14 1.58793e-15
 12835.2000 4.01899e-14 1.58907e-15
 12839.0000 3.95121e-14 1.56923e-15
 12842.9000 3.95004e-14 1.56628e-15
 12846.8000 3.89434e-14 1.54839e-15
 12850.7000 3.88440e-14 1.54362e-15
 12854.5000 3.83322e-14 1.52494e-15
 12858.4000 3.77325e-14 1.50249e-15
 12862.3000 3.72801e-14 1.48773e-15
 12866.2000 3.76170e-14 1.50262e-15
 12870.0000 3.71438e-14 1.48348e-15
 12873.9000 3.71453e-14 1.48605e-15
 12877.8000 3.63579e-14 1.46078e-15
 12881.7000 3.61937e-14 1.45183e-15
 12885.5000 3.59350e-14 1.44762e-15
 12889.4000 3.57481e-14 1.43990e-15
 12893.3000 3.49673e-14 1.41186e-15
 12897.2000 3.52573e-14 1.42599e-15
 12901.1000 3.50224e-14 1.41800e-15
 12904.9000 3.47620e-14 1.41870e-15
 12908.8000 3.40917e-14 1.39423e-15
 12912.7000 3.39961e-14 1.38350e-15
 12916.6000 3.34707e-14 1.36518e-15
 12920.4000 3.33873e-14 1.36729e-15
 12924.3000 3.29388e-14 1.34833e-15
 12928.2000 3.29031e-14 1.34724e-15
 12932.1000 3.24034e-14 1.32666e-15
 12935.9000 3.23841e-14 1.32804e-15
 12939.8000 3.20444e-14 1.31318e-15
 12943.7000 3.20889e-14 1.32113e-15
 12947.6000 3.13101e-14 1.29211e-15
 12951.4000 3.12679e-14 1.29441e-15
 12955.3000 3.10155e-14 1.28603e-15
 12959.2000 3.09856e-14 1.28773e-15
 12963.1000 3.04587e-14 1.27110e-15
 12967.0000 3.03697e-14 1.26634e-15
 12970.8000 3.01687e-14 1.26194e-15
 12974.7000 3.00358e-14 1.25776e-15
 12978.6000 2.92235e-14 1.22672e-15
 12982.5000 2.92300e-14 1.23018e-15
 12986.3000 2.88615e-14 1.21170e-15
 12990.2000 2.90062e-14 1.22342e-15
 12994.1000 2.85842e-14 1.20765e-15
 12998.0000 2.84415e-14 1.20929e-15
 13001.8000 2.81011e-14 1.19437e-15
 13005.7000 2.79278e-14 1.19412e-15
 13009.6000 2.75397e-14 1.17725e-15
 13013.5000 2.73895e-14 1.17175e-15
 13017.3000 2.68560e-14 1.15198e-15
 13021.2000 2.70047e-14 1.15886e-15
 13025.1000 2.66297e-14 1.14374e-15
 13029.0000 2.63891e-14 1.14042e-15
 13032.9000 2.62157e-14 1.13501e-15
 13036.7000 2.59702e-14 1.13597e-15
 13040.6000 2.55321e-14 1.11761e-15
 13044.5000 2.55897e-14 1.12377e-15
 13048.4000 2.52916e-14 1.10838e-15
 13052.2000 2.50407e-14 1.09567e-15
 13056.1000 2.48013e-14 1.08440e-15
 13060.0000 2.47575e-14 1.09041e-15
 13063.9000 2.42241e-14 1.07407e-15
 13067.7000 2.41106e-14 1.07602e-15
 13071.6000 2.37473e-14 1.06051e-15
 13075.5000 2.37266e-14 1.06184e-15
 13079.4000 2.34118e-14 1.04549e-15
 13083.2000 2.32321e-14 1.04259e-15
 13087.1000 2.29404e-14 1.03129e-15
 13091.0000 2.29714e-14 1.03744e-15
 13094.9000 2.27074e-14 1.02778e-15
 13098.8000 2.25063e-14 1.02768e-15
 13102.6000 2.21621e-14 1.01464e-15
 13106.5000 2.21487e-14 1.01466e-15
 13110.4000 2.15944e-14 9.84977e-16
 13114.3000 2.14023e-14 9.81702e-16
 13118.1000 2.11255e-14 9.65993e-16
 13122.0000 2.10385e-14 9.70001e-16
 13125.9000 2.06898e-14 9.59520e-16
 13129.8000 2.05029e-14 9.62588e-16
 13133.6000 2.03754e-14 9.57477e-16
 13137.5000 2.02309e-14 9.59945e-16
 13141.4000 1.99879e-14 9.46781e-16
 13145.3000 1.97715e-14 9.38981e-16
 13149.1000 1.93548e-14 9.20280e-16
 13153.0000 1.92971e-14 9.18896e-16
 13156.9000 1.91098e-14 9.09111e-16
 13160.8000 1.91822e-14 9.15418e-16
 13164.7000 1.87012e-14 8.94936e-16
 13168.5000 1.85739e-14 8.93382e-16
 13172.4000 1.82630e-14 8.80231e-16
 13176.3000 1.79245e-14 8.73607e-16
 13180.2000 1.76199e-14 8.57201e-16
 13184.0000 1.75916e-14 8.64565e-16
 13187.9000 1.72646e-14 8.54394e-16
 13191.8000 1.71095e-14 8.54439e-16
 13195.7000 1.69967e-14 8.50095e-16
 13199.5000 1.69577e-14 8.55140e-16
 13203.4000 1.67224e-14 8.43445e-16
 13207.3000 1.66507e-14 8.40390e-16
 13211.2000 1.62296e-14 8.17902e-16
 13215.0000 1.60961e-14 8.15033e-16
 13218.9000 1.60131e-14 8.07382e-16
 13222.8000 1.58353e-14 8.08645e-16
 13226.7000 1.56071e-14 8.00586e-16
 13230.6000 1.55149e-14 8.07257e-16
 13234.4000 1.54332e-14 7.99497e-16
 13238.3000 1.51748e-14 7.90590e-16
 13242.2000 1.49418e-14 7.73410e-16
 13246.1000 1.48487e-14 7.75411e-16
 13249.9000 1.45643e-14 7.55078e-16
 13253.8000 1.45259e-14 7.55522e-16
 13257.7000 1.44098e-14 7.50473e-16
 13261.6000 1.42385e-14 7.50513e-16
 13265.4000 1.39947e-14 7.39780e-16
 13269.3000 1.37692e-14 7.36560e-16
 13273.2000 1.37038e-14 7.35104e-16
 13277.1000 1.36360e-14 7.40083e-16
 13280.9000 1.35832e-14 7.40612e-16
 13284.8000 1.35875e-14 7.51926e-16
 13288.7000 1.32975e-14 7.43921e-16
 13292.6000 1.32022e-14 7.42095e-16
 13296.5000 1.31881e-14 7.31336e-16
 13300.3000 1.30648e-14 7.26320e-16
 13304.2000 1.28329e-14 7.16247e-16
 13308.1000 1.27296e-14 7.26651e-16
 13312.0000 1.25266e-14 7.26928e-16
 13315.8000 1.24864e-14 7.37106e-16
 13319.7000 1.24628e-14 7.29339e-16
 13323.6000 1.23077e-14 7.21153e-16
 13327.5000 1.21906e-14 7.05819e-16
 13331.3000 1.23818e-14 7.15858e-16
 13335.2000 1.23852e-14 7.11190e-16
 13339.1000 1.23015e-14 7.16625e-16
 13343.0000 1.21428e-14 7.00417e-16
 13346.8000 1.20436e-14 6.92001e-16
 13350.7000 1.19923e-14 6.83607e-16
 13354.6000 1.21291e-14 6.92764e-16
 13358.5000 1.19583e-14 6.88163e-16
 13362.4000 1.19689e-14 6.96509e-16
 13366.2000 1.19092e-14 6.88264e-16
 13370.1000 1.19677e-14 6.96089e-16
 13374.0000 1.17762e-14 6.89928e-16
 13377.9000 1.18350e-14 6.95982e-16
 13381.7000 1.15728e-14 6.78717e-16
 13385.6000 1.15627e-14 6.76710e-16
 13389.5000 1.17286e-14 6.74643e-16
 13393.4000 1.17861e-14 6.83320e-16
 13397.2000 1.17808e-14 6.86161e-16
 13401.1000 1.18305e-14 6.99509e-16
 13405.0000 1.18866e-14 7.04317e-16
 13408.9000 1.17799e-14 7.01586e-16
 13412.7000 1.18376e-14 6.90377e-16
 13416.6000 1.19194e-14 6.88994e-16
 13420.5000 1.19670e-14 6.82120e-16
 13424.4000 1.18186e-14 6.76896e-16
 13428.3000 1.19529e-14 6.77513e-16
 13432.1000 1.21718e-14 7.03698e-16
 13436.0000 1.23149e-14 7.27947e-16
 13439.9000 1.22313e-14 7.54882e-16
 13443.8000 1.22576e-14 7.68721e-16
 13447.6000 1.26074e-14 7.82009e-16
 13451.5000 1.25601e-14 7.56021e-16
 13455.4000 1.26189e-14 7.54628e-16
 13459.3000 1.25902e-14 7.53073e-16
 13463.1000 1.28279e-14 7.70352e-16
 13467.0000 1.29301e-14 7.76691e-16
 13470.9000 1.28173e-14 8.00678e-16
 13474.8000 1.29935e-14 8.52631e-16
 13478.6000 1.34406e-14 9.36215e-16
 13482.5000 1.33044e-14 9.70254e-16
 13486.4000 1.33466e-14 9.45509e-16
 13490.3000 1.35223e-14 8.85826e-16
 13494.2000 1.38879e-14 8.74604e-16
 13498.0000 1.38420e-14 8.83296e-16
 13501.9000 1.40821e-14 9.47403e-16
 13505.8000 1.44330e-14 1.00956e-15
 13509.7000 1.43642e-14 1.04954e-15
 13513.5000 1.41702e-14 1.03187e-15
 13517.4000 1.46030e-14 1.05386e-15
 13521.3000 1.52640e-14 1.07979e-15
 13525.2000 1.50947e-14 1.10087e-15
 13529.0000 1.56161e-14 1.14891e-15
 13532.9000 1.58085e-14 1.22435e-15
 13536.8000 1.65377e-14 1.32219e-15
 13540.7000 1.59464e-14 1.41433e-15
 13544.5000 1.69195e-14 1.61441e-15
 13548.4000 1.36883e-14 1.88897e-15
 13552.3000 1.54337e-14 1.97469e-15
 13556.2000 1.72820e-14 1.69584e-15
 13560.0000 1.78602e-14 1.58093e-15
 13563.9000 1.76530e-14 1.49373e-15
 13567.8000 1.84630e-14 1.50863e-15
 13571.7000 1.88914e-14 1.61064e-15
 13575.6000 1.88064e-14 1.73075e-15
 13579.4000 2.13849e-14 2.17863e-15
 13583.3000 2.22834e-14 2.27655e-15
 13587.2000 2.07865e-14 2.13497e-15
 13591.1000 2.07171e-14 2.15100e-15
 13594.9000 2.05003e-14 2.19858e-15
 13598.8000 2.00903e-14 2.26299e-15
 13602.7000 2.18204e-14 2.47807e-15
 13606.6000 2.24811e-14 2.74918e-15
 13610.4000 2.51163e-14 3.62838e-15
 13614.3000 2.62320e-14 5.10246e-15
 13618.2000 1.83120e-14 5.18570e-15
 13622.1000 2.17659e-14 4.51719e-15
 13625.9000 2.69080e-14 3.53512e-15
 13629.8000 2.49895e-14 2.55295e-15
 13633.7000 2.25845e-14 2.12369e-15
 13637.6000 2.47164e-14 2.29058e-15
 13641.5000 2.56017e-14 2.71207e-15
 13645.3000 2.54597e-14 3.52805e-15
 13649.2000 2.36978e-14 3.72550e-15
 13653.1000 2.73575e-14 3.10436e-15
 13657.0000 2.62293e-14 2.39717e-15
 13660.8000 2.46070e-14 2.07089e-15
 13664.7000 2.55350e-14 2.11183e-15
 13668.6000 2.71633e-14 2.41009e-15
 13672.5000 2.84170e-14 3.10684e-15
 13676.3000 2.83331e-14 3.91398e-15
 13680.2000 2.59391e-14 4.72509e-15
 13684.1000 2.95219e-14 4.60924e-15
 13688.0000 2.94928e-14 3.50236e-15
 13691.8000 2.97369e-14 2.94187e-15
 13695.7000 2.87738e-14 2.65784e-15
 13699.6000 2.78999e-14 2.60149e-15
 13703.5000 2.68873e-14 2.80893e-15
 13707.4000 2.64480e-14 3.19181e-15
 13711.2000 2.89908e-14 3.78532e-15
 13715.1000 3.38948e-14 4.16250e-15
 13719.0000 3.12470e-14 3.54459e-15
 13722.9000 2.78385e-14 2.77853e-15
 13726.7000 2.86783e-14 2.59794e-15
 13730.6000 2.89555e-14 2.27233e-15
 13734.5000 2.84952e-14 2.11986e-15
 13738.4000 2.86163e-14 2.01268e-15
 13742.2000 2.81243e-14 1.97661e-15
 13746.1000 2.91957e-14 1.97130e-15
 13750.0000 2.82497e-14 1.87770e-15
 13753.9000 2.85398e-14 1.79818e-15
 13757.7000 2.75880e-14 1.74461e-15
 13761.6000 2.72709e-14 1.78967e-15
 13765.5000 2.71317e-14 1.89079e-15
 13769.4000 2.79827e-14 1.84309e-15
 13773.3000 2.79589e-14 1.70810e-15
 13777.1000 2.74488e-14 1.58821e-15
 13781.0000 2.72466e-14 1.60011e-15
 13784.9000 2.84499e-14 1.78043e-15
 13788.8000 2.86231e-14 1.96321e-15
 13792.6000 2.75420e-14 1.87201e-15
 13796.5000 2.80090e-14 1.83659e-15
 13800.4000 2.87266e-14 1.98825e-15
 13804.3000 2.80184e-14 2.35571e-15
 13808.1000 2.76155e-14 2.86777e-15
 13812.0000 2.90665e-14 3.03182e-15
 13815.9000 2.79526e-14 2.67338e-15
 13819.8000 2.73028e-14 2.77111e-15
 13823.6000 2.85579e-14 3.46100e-15
 13827.5000 3.17872e-14 4.72075e-15
 13831.4000 3.10737e-14 4.40861e-15
 13835.3000 3.04526e-14 3.75947e-15
 13839.2000 2.82233e-14 2.96745e-15
 13843.0000 2.78053e-14 2.82256e-15
 13846.9000 2.80093e-14 2.67909e-15
 13850.8000 2.72620e-14 2.70070e-15
 13854.7000 2.48427e-14 2.42860e-15
 13858.5000 2.62406e-14 2.31515e-15
 13862.4000 2.82658e-14 2.14233e-15
 13866.3000 2.63560e-14 1.81786e-15
 13870.2000 2.52628e-14 1.66223e-15
 13874.0000 2.50417e-14 1.71705e-15
 13877.9000 2.43067e-14 1.84344e-15
 13881.8000 2.45852e-14 1.96522e-15
 13885.7000 2.52073e-14 1.79469e-15
 13889.5000 2.37158e-14 1.51882e-15
 13893.4000 2.35179e-14 1.37116e-15
 13897.3000 2.32539e-14 1.35280e-15
 13901.2000 2.25913e-14 1.33744e-15
 13905.1000 2.24880e-14 1.35785e-15
 13908.9000 2.27197e-14 1.34538e-15
 13912.8000 2.26158e-14 1.36418e-15
 13916.7000 2.29759e-14 1.46790e-15
 13920.6000 2.31196e-14 1.66861e-15
 13924.4000 2.29860e-14 1.89589e-15
 13928.3000 2.31324e-14 1.86826e-15
 13932.2000 2.31242e-14 1.64799e-15
 13936.1000 2.33107e-14 1.55632e-15
 13939.9000 2.32729e-14 1.59391e-15
 13943.8000 2.36336e-14 1.80125e-15
 13947.7000 2.26711e-14 2.14619e-15
 13951.6000 2.27731e-14 2.81531e-15
 13955.4000 2.70861e-14 4.35937e-15
 13959.3000 2.11210e-14 3.11253e-15
 13963.2000 2.26149e-14 2.66826e-15
 13967.1000 2.35615e-14 2.09823e-15
 13971.0000 2.21210e-14 1.60077e-15
 13974.8000 2.10524e-14 1.34936e-15
 13978.7000 2.09177e-14 1.23252e-15
 13982.6000 2.10839e-14 1.23236e-15
 13986.5000 2.13806e-14 1.26700e-15
 13990.3000 2.13003e-14 1.38332e-15
 13994.2000 2.18996e-14 1.61932e-15
 13998.1000 2.41506e-14 2.28597e-15
 14002.0000 2.28900e-14 3.23709e-15
 14005.8000 2.24644e-14 3.72299e-15
 14009.7000 2.38416e-14 3.36744e-15
 14013.6000 2.29486e-14 2.45976e-15
 14017.5000 2.26428e-14 1.73360e-15
 14021.3000 2.05509e-14 1.37858e-15
 14025.2000 2.05756e-14 1.25464e-15
 14029.1000 2.02392e-14 1.23470e-15
 14033.0000 2.04369e-14 1.30117e-15
 14036.9000 1.97590e-14 1.41366e-15
 14037.6000 2.00805e-14 1.25670e-15
 14042.4000 2.01075e-14 1.58369e-15
 14047.3000 2.05032e-14 1.81336e-15
 14052.1000 2.07599e-14 1.52062e-15
 14057.0000 2.03893e-14 1.29663e-15
 14061.8000 2.00558e-14 1.32857e-15
 14066.7000 2.00921e-14 1.35215e-15
 14071.5000 2.03463e-14 1.38289e-15
 14076.4000 1.99546e-14 1.33125e-15
 14081.2000 1.95758e-14 1.31629e-15
 14086.1000 1.97268e-14 1.26286e-15
 14090.9000 1.97090e-14 1.37633e-15
 14095.8000 1.88362e-14 1.48475e-15
 14100.6000 1.90473e-14 1.50857e-15
 14105.5000 1.90945e-14 1.20600e-15
 14110.3000 1.91893e-14 1.08251e-15
 14115.2000 1.88144e-14 1.08044e-15
 14120.0000 1.85834e-14 1.13336e-15
 14124.9000 1.87105e-14 1.00877e-15
 14129.7000 1.84137e-14 9.31721e-16
 14134.6000 1.83449e-14 9.86589e-16
 14139.4000 1.81699e-14 1.23495e-15
 14144.3000 1.78468e-14 1.39925e-15
 14149.1000 1.73739e-14 1.24352e-15
 14154.0000 1.81047e-14 1.14829e-15
 14158.8000 1.74133e-14 1.03929e-15
 14163.7000 1.69489e-14 8.77578e-16
 14168.5000 1.66236e-14 8.30164e-16
 14173.4000 1.67628e-14 8.87718e-16
 14178.2000 1.71758e-14 1.02705e-15
 14183.1000 1.67354e-14 1.00391e-15
 14187.9000 1.67303e-14 1.04324e-15
 14192.8000 1.61978e-14 1.16125e-15
 14197.6000 1.57418e-14 1.22682e-15
 14202.5000 1.62775e-14 1.01687e-15
 14207.4000 1.56024e-14 8.68838e-16
 14212.2000 1.54373e-14 8.45595e-16
 14217.1000 1.52434e-14 9.10794e-16
 14221.9000 1.49657e-14 8.40187e-16
 14226.8000 1.49013e-14 7.76407e-16
 14231.6000 1.46675e-14 8.68950e-16
 14236.5000 1.47170e-14 9.82042e-16
 14241.3000 1.43733e-14 8.35094e-16
 14246.2000 1.41138e-14 7.50224e-16
 14251.0000 1.38163e-14 7.51894e-16
 14255.9000 1.37268e-14 8.25425e-16
 14260.7000 1.38195e-14 7.58699e-16
 14265.6000 1.37242e-14 7.06286e-16
 14270.4000 1.36044e-14 7.40528e-16
 14275.3000 1.34433e-14 8.46938e-16
 14280.1000 1.33064e-14 8.30540e-16
 14285.0000 1.32322e-14 7.88513e-16
 14289.8000 1.29902e-14 7.59014e-16
 14294.7000 1.29757e-14 7.53054e-16
 14299.5000 1.27638e-14 6.66257e-16
 14304.4000 1.27738e-14 6.42469e-16
 14309.2000 1.26525e-14 7.01462e-16
 14314.1000 1.27173e-14 8.54667e-16
 14318.9000 1.24259e-14 8.66542e-16
 14323.8000 1.25503e-14 8.20459e-16
 14328.6000 1.27185e-14 7.92569e-16
 14333.5000 1.25041e-14 7.78732e-16
 14338.3000 1.25000e-14 7.10312e-16
 14343.2000 1.27088e-14 7.06616e-16
 14348.0000 1.28961e-14 7.35499e-16
 14352.9000 1.26922e-14 7.48421e-16
 14357.7000 1.28286e-14 6.90581e-16
 14362.6000 1.27370e-14 6.98962e-16
 14367.4000 1.26964e-14 9.92284e-16
 14372.3000 1.27567e-14 8.36093e-16
 14377.1000 1.33357e-14 8.22341e-16
 14382.0000 1.34793e-14 7.59885e-16
 14386.8000 1.34772e-14 7.38448e-16
 14391.7000 1.35553e-14 7.63896e-16
 14396.5000 1.34426e-14 7.07269e-16
 14401.4000 1.32855e-14 6.81110e-16
 14406.2000 1.37606e-14 7.18335e-16
 14411.1000 1.38426e-14 7.69087e-16
 14415.9000 1.40828e-14 7.27340e-16
 14420.8000 1.45216e-14 7.20736e-16
 14425.6000 1.47711e-14 7.53370e-16
 14430.5000 1.48496e-14 7.79587e-16
 14435.3000 1.52854e-14 7.18909e-16
 14440.2000 1.55360e-14 6.95386e-16
 14445.0000 1.57558e-14 7.43980e-16
 14449.9000 1.56549e-14 8.37967e-16
 14454.7000 1.61837e-14 8.50487e-16
 14459.6000 1.69540e-14 8.91838e-16
 14464.4000 1.69182e-14 8.60526e-16
 14469.3000 1.70640e-14 8.27321e-16
 14474.1000 1.71421e-14 7.44505e-16
 14479.0000 1.71827e-14 7.12875e-16
 14483.8000 1.74542e-14 7.37485e-16
 14488.7000 1.77722e-14 7.82000e-16
 14493.5000 1.79483e-14 7.59701e-16
 14498.4000 1.80827e-14 7.93294e-16
 14503.2000 1.83203e-14 9.22647e-16
 14508.1000 1.89775e-14 1.03907e-15
 14512.9000 1.91030e-14 9.16104e-16
 14517.8000 1.90143e-14 8.43260e-16
 14522.6000 1.93556e-14 8.34622e-16
 14527.5000 1.94355e-14 8.44316e-16
 14532.3000 1.94807e-14 7.67717e-16
 14537.2000 1.96822e-14 7.44665e-16
 14542.0000 1.97376e-14 7.79792e-16
 14546.9000 1.97830e-14 8.20357e-16
 14551.7000 1.99407e-14 7.88139e-16
 14556.6000 2.04257e-14 7.91030e-16
 14561.4000 2.07443e-14 8.23822e-16
 14566.3000 2.06960e-14 8.30426e-16
 14571.1000 2.07363e-14 7.79794e-16
 14576.0000 2.08168e-14 7.69027e-16
 14580.8000 2.10205e-14 8.16465e-16
 14585.7000 2.13484e-14 8.38779e-16
 14590.5000 2.10222e-14 7.59927e-16
 14595.4000 2.09324e-14 7.62081e-16
 14600.2000 2.10534e-14 8.23384e-16
 14605.1000 2.10472e-14 8.65198e-16
 14609.9000 2.12277e-14 8.17765e-16
 14614.8000 2.13778e-14 7.99716e-16
 14619.6000 2.12822e-14 8.28032e-16
 14624.5000 2.10396e-14 8.41252e-16
 14629.3000 2.09690e-14 8.03606e-16
 14634.2000 2.11442e-14 8.08377e-16
 14639.0000 2.12848e-14 8.35306e-16
 14643.9000 2.09638e-14 8.16939e-16
 14648.7000 2.08734e-14 7.77737e-16
 14653.6000 2.09988e-14 7.98570e-16
 14658.4000 2.09659e-14 8.68047e-16
 14663.3000 2.10419e-14 8.97383e-16
 14668.1000 2.09957e-14 8.46109e-16
 14673.0000 2.08781e-14 8.30065e-16
 14677.8000 2.07649e-14 8.52567e-16
 14682.7000 2.07923e-14 8.25007e-16
 14687.5000 2.03684e-14 7.66247e-16
 14692.4000 2.03450e-14 7.76784e-16
 14697.2000 2.05166e-14 8.57226e-16
 14702.1000 2.02314e-14 8.96592e-16
 14706.9000 2.06680e-14 8.82401e-16
 14711.8000 2.05384e-14 8.69978e-16
 14716.6000 2.01085e-14 8.85421e-16
 14721.5000 2.00225e-14 8.59017e-16
 14726.3000 2.01355e-14 8.14447e-16
 14731.2000 1.99325e-14 7.89450e-16
 14736.0000 1.98851e-14 8.07208e-16
 14740.9000 1.98653e-14 7.82307e-16
 14745.7000 1.98598e-14 7.19887e-16
 14750.6000 1.96992e-14 7.18145e-16
 14755.4000 1.96128e-14 7.60414e-16
 14760.3000 1.96286e-14 7.90224e-16
 14765.1000 1.97157e-14 7.62130e-16
 14770.0000 1.98739e-14 7.68083e-16
 14774.8000 1.97838e-14 8.09592e-16
 14779.7000 1.96818e-14 8.02239e-16
 14784.5000 1.98922e-14 7.53972e-16
 14789.4000 1.96109e-14 7.39133e-16
 14794.2000 1.98905e-14 7.85998e-16
 14799.1000 1.98895e-14 8.07716e-16
 14803.9000 2.00616e-14 7.77253e-16
 14808.8000 2.03822e-14 7.83330e-16
 14813.6000 2.02072e-14 8.06015e-16
 14818.5000 2.03640e-14 7.97201e-16
 14823.3000 2.05755e-14 7.51873e-16
 14828.2000 2.06200e-14 7.46330e-16
 14833.0000 2.06740e-14 7.73627e-16
 14837.9000 2.08175e-14 7.71373e-16
 14842.7000 2.12501e-14 7.55057e-16
 14847.6000 2.14341e-14 7.67749e-16
 14852.4000 2.16810e-14 8.16410e-16
 14857.3000 2.16397e-14 8.02287e-16
 14862.1000 2.17955e-14 7.76364e-16
 14867.0000 2.23016e-14 8.01697e-16
 14871.9000 2.28382e-14 8.60909e-16
 14876.7000 2.29780e-14 8.45827e-16
 14881.6000 2.32385e-14 8.00667e-16
 14886.4000 2.35992e-14 8.10162e-16
 14891.3000 2.36665e-14 8.48857e-16
 14896.1000 2.39559e-14 8.37612e-16
 14901.0000 2.45970e-14 8.08889e-16
 14905.8000 2.47744e-14 8.19588e-16
 14910.7000 2.51096e-14 8.68373e-16
 14915.5000 2.55980e-14 8.76845e-16
 14920.4000 2.59835e-14 8.49695e-16
 14925.2000 2.62686e-14 8.57552e-16
 14930.1000 2.68092e-14 9.11521e-16
 14934.9000 2.71967e-14 8.98774e-16
 14939.8000 2.77046e-14 8.70749e-16
 14944.6000 2.79853e-14 8.87585e-16
 14949.5000 2.84532e-14 9.52890e-16
 14954.3000 2.89171e-14 9.47156e-16
 14959.2000 2.94102e-14 9.17149e-16
 14964.0000 2.97670e-14 9.35735e-16
 14968.9000 3.02108e-14 9.95019e-16
 14973.7000 3.06053e-14 9.76998e-16
 14978.6000 3.08883e-14 9.36050e-16
 14983.4000 3.14555e-14 9.64642e-16
 14988.3000 3.20687e-14 1.03260e-15
 14993.1000 3.25286e-14 1.01445e-15
 14998.0000 3.29219e-14 9.76698e-16
 15002.8000 3.34879e-14 1.00345e-15
 15007.7000 3.39644e-14 1.07211e-15
 15012.5000 3.43357e-14 1.04716e-15
 15017.4000 3.47087e-14 1.01226e-15
 15022.2000 3.51946e-14 1.04335e-15
 15027.1000 3.54861e-14 1.11022e-15
 15031.9000 3.58606e-14 1.08912e-15
 15036.8000 3.63808e-14 1.06787e-15
 15041.6000 3.67400e-14 1.09800e-15
 15046.5000 3.71629e-14 1.16972e-15
 15051.3000 3.76446e-14 1.13796e-15
 15056.2000 3.78432e-14 1.09366e-15
 15061.0000 3.84336e-14 1.11925e-15
 15065.9000 3.87149e-14 1.18582e-15
 15070.7000 3.94138e-14 1.15707e-15
 15075.6000 3.97243e-14 1.12700e-15
 15080.4000 4.00575e-14 1.15421e-15
 15085.3000 4.04838e-14 1.24269e-15
 15090.1000 4.07979e-14 1.20073e-15
 15095.0000 4.13269e-14 1.17290e-15
 15099.8000 4.16945e-14 1.19479e-15
 15104.7000 4.18822e-14 1.26642e-15
 15109.5000 4.21916e-14 1.21798e-15
 15114.4000 4.23624e-14 1.17927e-15
 15119.2000 4.26231e-14 1.20717e-15
 15124.1000 4.30796e-14 1.29612e-15
 15128.9000 4.35404e-14 1.25037e-15
 15133.8000 4.35304e-14 1.21194e-15
 15138.6000 4.45131e-14 1.72481e-15
 15143.5000 4.42457e-14 1.71642e-15
 15148.3000 4.44811e-14 1.71231e-15
 15153.2000 4.44344e-14 1.70846e-15
 15158.0000 4.51824e-14 1.73188e-15
 15162.9000 4.50125e-14 1.73392e-15
 15167.7000 4.55753e-14 1.74569e-15
 15172.6000 4.54787e-14 1.74724e-15
 15177.4000 4.58307e-14 1.75657e-15
 15182.3000 4.54458e-14 1.74563e-15
 15187.1000 4.58091e-14 1.74693e-15
 15192.0000 4.56731e-14 1.74450e-15
 15196.8000 4.61748e-14 1.75844e-15
 15201.7000 4.56320e-14 1.74361e-15
 15206.5000 4.61882e-14 1.74925e-15
 15211.4000 4.55176e-14 1.74034e-15
 15216.2000 4.60689e-14 1.74216e-15
 15221.1000 4.58929e-14 1.74685e-15
 15225.9000 4.63504e-14 1.75163e-15
 15230.8000 4.60138e-14 1.74691e-15
 15235.6000 4.59184e-14 1.74406e-15
 15240.5000 4.58565e-14 1.74215e-15
 15245.3000 4.64120e-14 1.75554e-15
 15250.2000 4.60443e-14 1.74493e-15
 15255.0000 4.67385e-14 1.75901e-15
 15259.9000 4.64103e-14 1.76007e-15
 15264.7000 4.68196e-14 1.76832e-15
 15269.6000 4.61299e-14 1.74566e-15
 15274.4000 4.63383e-14 1.73994e-15
 15279.3000 4.57669e-14 1.73469e-15
 15284.1000 4.64640e-14 1.74136e-15
 15289.0000 4.63332e-14 1.75189e-15
 15293.8000 4.69413e-14 1.76411e-15
 15298.7000 4.63776e-14 1.74970e-15
 15303.5000 4.69956e-14 1.75433e-15
 15308.4000 4.65426e-14 1.75832e-15
 15313.2000 4.69843e-14 1.75824e-15
 15318.1000 4.63489e-14 1.74867e-15
 15322.9000 4.66122e-14 1.74490e-15
 15327.8000 4.58399e-14 1.72286e-15
 15332.6000 4.65359e-14 1.74026e-15
 15337.5000 4.62402e-14 1.73805e-15
 15342.3000 4.67114e-14 1.75137e-15
 15347.2000 4.64104e-14 1.74389e-15
 15352.0000 4.68380e-14 1.75381e-15
 15356.9000 4.60648e-14 1.72761e-15
 15361.7000 4.68710e-14 1.75147e-15
 15366.6000 4.62119e-14 1.74013e-15
 15371.4000 4.65614e-14 1.73671e-15
 15376.3000 4.61833e-14 1.73471e-15
 15381.1000 4.67237e-14 1.73974e-15
 15386.0000 4.59821e-14 1.72567e-15
 15390.8000 4.63452e-14 1.72531e-15
 15395.7000 4.57760e-14 1.72641e-15
 15400.5000 4.60956e-14 1.71522e-15
 15405.4000 4.57168e-14 1.71739e-15
 15410.2000 4.61283e-14 1.71921e-15
 15415.1000 4.57800e-14 1.71922e-15
 15419.9000 4.60452e-14 1.71870e-15
 15424.8000 4.53965e-14 1.70449e-15
 15429.6000 4.56478e-14 1.70679e-15
 15434.5000 4.48156e-14 1.67964e-15
 15439.3000 4.52079e-14 1.68118e-15
 15444.2000 4.52542e-14 1.69405e-15
 15449.0000 4.56172e-14 1.70181e-15
 15453.9000 4.47741e-14 1.67678e-15
 15458.7000 4.52475e-14 1.67756e-15
 15463.6000 4.49309e-14 1.67721e-15
 15468.4000 4.53155e-14 1.68054e-15
 15473.3000 4.49242e-14 1.68035e-15
 15478.1000 4.51869e-14 1.67979e-15
 15483.0000 4.49968e-14 1.67534e-15
 15487.8000 4.53278e-14 1.68135e-15
 15492.7000 4.46886e-14 1.67073e-15
 15497.5000 4.49830e-14 1.66994e-15
 15502.4000 4.47594e-14 1.67476e-15
 15507.2000 4.49642e-14 1.67432e-15
 15512.1000 4.46877e-14 1.67030e-15
 15516.9000 4.49653e-14 1.67293e-15
 15521.8000 4.47614e-14 1.67106e-15
 15526.6000 4.49645e-14 1.67500e-15
 15531.5000 4.45776e-14 1.66475e-15
 15536.4000 4.46260e-14 1.65769e-15
 15541.2000 4.42742e-14 1.65059e-15
 15546.1000 4.45110e-14 1.65219e-15
 15550.9000 4.43135e-14 1.64986e-15
 15555.8000 4.43869e-14 1.65292e-15
 15560.6000 4.41693e-14 1.64580e-15
 15565.5000 4.44141e-14 1.64852e-15
 15570.3000 4.42243e-14 1.64324e-15
 15575.2000 4.45484e-14 1.65248e-15
 15580.0000 4.46922e-14 1.66100e-15
 15584.9000 4.46323e-14 1.66151e-15
 15589.7000 4.44658e-14 1.65252e-15
 15594.6000 4.48033e-14 1.65725e-15
 15599.4000 4.48738e-14 1.66732e-15
 15604.3000 4.48654e-14 1.66318e-15
 15609.1000 4.48033e-14 1.66077e-15
 15614.0000 4.50406e-14 1.66294e-15
 15618.8000 4.52491e-14 1.66795e-15
 15623.7000 4.51969e-14 1.66410e-15
 15628.5000 4.52093e-14 1.66852e-15
 15633.4000 4.52346e-14 1.66951e-15
 15638.2000 4.53063e-14 1.66892e-15
 15643.1000 4.55546e-14 1.67839e-15
 15647.9000 4.56614e-14 1.68504e-15
 15652.8000 4.56206e-14 1.68633e-15
 15657.6000 4.58231e-14 1.68969e-15
 15662.5000 4.59944e-14 1.69551e-15
 15667.3000 4.63344e-14 1.70767e-15
 15672.2000 4.61872e-14 1.70438e-15
 15677.0000 4.62151e-14 1.69680e-15
 15681.9000 4.60644e-14 1.69888e-15
 15686.7000 4.58982e-14 1.68746e-15
 15691.6000 4.56525e-14 1.68359e-15
 15696.4000 4.56843e-14 1.68725e-15
 15701.3000 4.51496e-14 1.67431e-15
 15706.1000 4.51067e-14 1.66978e-15
 15711.0000 4.48878e-14 1.66328e-15
 15715.8000 4.50193e-14 1.66373e-15
 15720.7000 4.48308e-14 1.66683e-15
 15725.5000 4.53222e-14 1.68352e-15
 15730.4000 4.51507e-14 1.68182e-15
 15735.2000 4.55182e-14 1.68863e-15
 15740.1000 4.52785e-14 1.68315e-15
 15744.9000 4.55066e-14 1.67933e-15
 15749.8000 4.51917e-14 1.67289e-15
 15754.6000 4.54647e-14 1.67536e-15
 15759.5000 4.48462e-14 1.65585e-15
 15764.3000 4.49994e-14 1.64892e-15
 15769.2000 4.45339e-14 1.65003e-15
 15774.0000 4.48026e-14 1.65409e-15
 15778.9000 4.43468e-14 1.64676e-15
 15783.7000 4.44554e-14 1.64575e-15
 15788.6000 4.38182e-14 1.63302e-15
 15793.4000 4.40887e-14 1.63509e-15
 15798.3000 4.34239e-14 1.61752e-15
 15803.1000 4.37563e-14 1.61598e-15
 15808.0000 4.33661e-14 1.60908e-15
 15812.8000 4.38270e-14 1.61717e-15
 15817.7000 4.31120e-14 1.60338e-15
 15822.5000 4.32131e-14 1.59829e-15
 15827.4000 4.23608e-14 1.57147e-15
 15832.2000 4.26863e-14 1.57850e-15
 15837.1000 4.21890e-14 1.57208e-15
 15841.9000 4.28358e-14 1.57998e-15
 15846.8000 4.24704e-14 1.57574e-15
 15851.6000 4.29162e-14 1.57875e-15
 15856.5000 4.21558e-14 1.56531e-15
 15861.3000 4.25938e-14 1.56913e-15
 15866.2000 4.22018e-14 1.56359e-15
 15871.0000 4.28317e-14 1.58324e-15
 15875.9000 4.21559e-14 1.56088e-15
 15880.7000 4.27925e-14 1.58075e-15
 15885.6000 4.22142e-14 1.56136e-15
 15890.4000 4.28475e-14 1.58059e-15
 15895.3000 4.20175e-14 1.55357e-15
 15900.1000 4.28149e-14 1.57871e-15
 15905.0000 4.18285e-14 1.54627e-15
 15909.8000 4.27229e-14 1.57435e-15
 15914.7000 4.20803e-14 1.55297e-15
 15919.5000 4.27667e-14 1.57428e-15
 15924.4000 4.20558e-14 1.55087e-15
 15929.2000 4.33526e-14 1.58697e-15
 15934.1000 4.25569e-14 1.57344e-15
 15938.9000 4.33423e-14 1.58450e-15
 15943.8000 4.25868e-14 1.57180e-15
 15948.6000 4.33734e-14 1.57978e-15
 15953.5000 4.22575e-14 1.62201e-15
 15958.3000 4.35850e-14 1.60215e-15
 15963.2000 4.25079e-14 1.56858e-15
 15968.0000 4.34880e-14 1.58198e-15
 15972.9000 4.28326e-14 1.57666e-15
 15977.7000 4.36547e-14 1.58527e-15
 15982.6000 4.28394e-14 1.57677e-15
 15987.4000 4.41050e-14 1.60684e-15
 15992.3000 4.32965e-14 1.59036e-15
 15997.1000 4.41716e-14 1.60966e-15
 16002.0000 4.32993e-14 1.59613e-15
 16006.8000 4.44000e-14 1.62109e-15
 16011.7000 4.35458e-14 1.60757e-15
 16016.5000 4.43171e-14 1.62317e-15
 16021.4000 4.30140e-14 1.59474e-15
 16026.2000 4.39149e-14 1.61156e-15
 16031.1000 4.30564e-14 1.59687e-15
 16035.9000 4.41507e-14 1.61344e-15
 16040.8000 4.37296e-14 1.61487e-15
 16045.6000 4.52842e-14 1.65034e-15
 16050.5000 4.43481e-14 1.63469e-15
 16055.3000 4.55112e-14 1.65197e-15
 16060.2000 4.43925e-14 1.63866e-15
 16065.0000 4.57000e-14 1.65082e-15
 16069.9000 4.47569e-14 1.64683e-15
 16074.7000 4.58153e-14 1.66075e-15
 16079.6000 4.43983e-14 1.64828e-15
 16084.4000 4.51925e-14 1.64651e-15
 16089.3000 4.38167e-14 1.62466e-15
 16094.1000 4.46295e-14 1.62313e-15
 16099.0000 4.34359e-14 1.60763e-15
 16103.8000 4.36209e-14 1.60032e-15
 16108.7000 4.26733e-14 1.56881e-15
 16113.5000 4.39149e-14 1.60754e-15
 16118.4000 4.25218e-14 1.56227e-15
 16123.2000 4.36183e-14 1.59686e-15
 16128.1000 4.25267e-14 1.56079e-15
 16132.9000 4.39979e-14 1.60648e-15
 16137.8000 4.31913e-14 1.57980e-15
 16142.6000 4.44585e-14 1.61923e-15
 16147.5000 4.34316e-14 1.58519e-15
 16152.3000 4.46388e-14 1.62280e-15
 16157.2000 4.33742e-14 1.58102e-15
 16162.0000 4.46633e-14 1.62133e-15
 16166.9000 4.33750e-14 1.57940e-15
 16171.7000 4.50402e-14 1.62785e-15
 16176.6000 4.36882e-14 1.60107e-15
 16181.4000 4.48309e-14 1.61927e-15
 16186.3000 4.37098e-14 1.60646e-15
 16191.2000 4.44606e-14 1.61186e-15
 16196.0000 4.33948e-14 1.58673e-15
 16200.9000 4.46285e-14 1.61431e-15
 16205.7000 4.37813e-14 1.59775e-15
 16210.6000 4.47493e-14 1.62121e-15
 16215.4000 4.35492e-14 1.59234e-15
 16220.3000 4.45991e-14 1.61003e-15
 16225.1000 4.33931e-14 1.58820e-15
 16230.0000 4.40351e-14 1.58804e-15
 16234.8000 4.32045e-14 1.57761e-15
 16239.7000 4.44320e-14 1.60671e-15
 16244.5000 4.37202e-14 1.60096e-15
 16249.4000 4.47337e-14 1.61353e-15
 16254.2000 4.39118e-14 1.60566e-15
 16259.1000 4.50161e-14 1.61630e-15
 16263.9000 4.42924e-14 1.61521e-15
 16268.8000 4.53499e-14 1.63254e-15
 16273.6000 4.45574e-14 1.62276e-15
 16278.5000 4.54136e-14 1.63747e-15
 16283.3000 4.44093e-14 1.61620e-15
 16288.2000 4.54468e-14 1.63459e-15
 16293.0000 4.47751e-14 1.62645e-15
 16297.9000 4.58379e-14 1.64791e-15
 16302.7000 4.46872e-14 1.62709e-15
 16307.6000 4.59076e-14 1.65146e-15
 16312.4000 4.50937e-14 1.63834e-15
 16317.3000 4.61368e-14 1.65801e-15
 16322.1000 4.55040e-14 1.65038e-15
 16327.0000 4.63417e-14 1.66503e-15
 16331.8000 4.55658e-14 1.65723e-15
 16336.7000 4.63434e-14 1.66982e-15
 16341.5000 4.56476e-14 1.65889e-15
 16346.4000 4.65363e-14 1.67025e-15
 16351.2000 4.58686e-14 1.66405e-15
 16356.1000 4.61631e-14 1.66427e-15
 16360.9000 4.53840e-14 1.64019e-15
 16365.8000 4.63306e-14 1.67041e-15
 16370.6000 4.55487e-14 1.64535e-15
 16375.5000 4.61050e-14 1.66334e-15
 16380.3000 4.52737e-14 1.63673e-15
 16385.2000 4.61340e-14 1.66440e-15
 16390.0000 4.53219e-14 1.63880e-15
 16394.9000 4.59625e-14 1.65953e-15
 16399.7000 4.48054e-14 1.62271e-15
 16404.6000 4.56478e-14 1.65006e-15
 16409.4000 4.48320e-14 1.62429e-15
 16414.3000 4.56434e-14 1.65028e-15
 16419.1000 4.45953e-14 1.61686e-15
 16424.0000 4.50763e-14 1.63231e-15
 16428.8000 4.40884e-14 1.60098e-15
 16433.7000 4.47104e-14 1.62090e-15
 16438.5000 4.41327e-14 1.60288e-15
 16443.4000 4.47837e-14 1.62409e-15
 16448.2000 4.39888e-14 1.59874e-15
 16453.1000 4.43770e-14 1.61140e-15
 16457.9000 4.36951e-14 1.58966e-15
 16462.8000 4.44192e-14 1.61278e-15
 16467.6000 4.38203e-14 1.59414e-15
 16472.5000 4.42900e-14 1.60952e-15
 16477.3000 4.33258e-14 1.57896e-15
 16482.2000 4.36558e-14 1.58972e-15
 16487.0000 4.29423e-14 1.56704e-15
 16491.9000 4.35289e-14 1.58577e-15
 16496.7000 4.29975e-14 1.56895e-15
 16501.6000 4.38149e-14 1.59031e-15
 16506.4000 4.30617e-14 1.57896e-15
 16511.3000 4.33396e-14 1.58188e-15
 16516.1000 4.27485e-14 1.56251e-15
 16521.0000 4.34147e-14 1.57733e-15
 16525.8000 4.31063e-14 1.57022e-15
 16530.7000 4.35088e-14 1.57977e-15
 16535.5000 4.28413e-14 1.56772e-15
 16540.4000 4.32155e-14 1.56622e-15
 16545.2000 4.29233e-14 1.56479e-15
 16550.1000 4.33426e-14 1.56998e-15
 16554.9000 4.31138e-14 1.57698e-15
 16559.8000 4.35355e-14 1.58308e-15
 16564.6000 4.31581e-14 1.56913e-15
 16569.5000 4.38115e-14 1.58837e-15
 16574.3000 4.35861e-14 1.58906e-15
 16579.2000 4.40021e-14 1.59517e-15
 16584.0000 4.37451e-14 1.58915e-15
 16588.9000 4.40240e-14 1.59726e-15
 16593.7000 4.37357e-14 1.58639e-15
 16598.6000 4.42009e-14 1.60205e-15
 16603.4000 4.40786e-14 1.59974e-15
 16608.3000 4.46667e-14 1.61634e-15
 16613.1000 4.47834e-14 1.62639e-15
 16618.0000 4.54095e-14 1.64422e-15
 16622.8000 4.53026e-14 1.64277e-15
 16627.7000 4.57254e-14 1.65263e-15
 16632.5000 4.55819e-14 1.65453e-15
 16637.4000 4.61521e-14 1.66295e-15
 16642.2000 4.62154e-14 1.67404e-15
 16647.1000 4.66173e-14 1.67877e-15
 16651.9000 4.65328e-14 1.68189e-15
 16656.8000 4.68558e-14 1.70200e-15
 16661.6000 4.67136e-14 1.70833e-15
 16666.5000 4.70498e-14 1.70634e-15
 16671.3000 4.74237e-14 1.72076e-15
 16676.2000 4.81459e-14 1.73713e-15
 16681.0000 4.83237e-14 1.74555e-15
 16685.9000 4.87461e-14 1.75523e-15
 16690.7000 4.87374e-14 1.75668e-15
 16695.6000 4.90833e-14 1.76556e-15
 16700.4000 4.94367e-14 1.77249e-15
 16705.3000 5.00332e-14 1.78796e-15
 16710.1000 5.03633e-14 1.79978e-15
 16715.0000 5.09070e-14 1.81750e-15
 16719.8000 5.16418e-14 1.85483e-15
 16724.7000 5.21918e-14 1.87526e-15
 16729.5000 5.23418e-14 1.86445e-15
 16734.4000 5.25534e-14 1.87267e-15
 16739.2000 5.25792e-14 1.87163e-15
 16744.1000 5.30066e-14 1.88529e-15
 16748.9000 5.35047e-14 1.91015e-15
 16753.8000 5.37694e-14 1.91518e-15
 16758.6000 5.40830e-14 1.92504e-15
 16763.5000 5.42468e-14 1.93042e-15
 16768.3000 5.42925e-14 1.93177e-15
 16773.2000 5.42874e-14 1.93157e-15
 16778.0000 5.43714e-14 1.93418e-15
 16782.9000 5.47013e-14 1.94472e-15
 16787.7000 5.52204e-14 1.96101e-15
 16792.6000 5.52781e-14 1.96259e-15
 16797.4000 5.52813e-14 1.96296e-15
 16802.3000 5.49696e-14 1.95309e-15
 16807.1000 5.49448e-14 1.95204e-15
 16812.0000 5.49074e-14 1.95085e-15
 16816.8000 5.50922e-14 1.95633e-15
 16821.7000 5.51168e-14 1.95665e-15
 16826.5000 5.50332e-14 1.95413e-15
 16831.4000 5.45077e-14 1.93735e-15
 16836.2000 5.42623e-14 1.92954e-15
 16841.1000 5.37316e-14 1.91271e-15
 16845.9000 5.38084e-14 1.91507e-15
 16850.8000 5.37810e-14 1.91425e-15
 16855.7000 5.40560e-14 1.92265e-15
 16860.5000 5.35650e-14 1.90709e-15
 16865.4000 5.32530e-14 1.89690e-15
 16870.2000 5.25202e-14 1.87543e-15
 16875.1000 5.23062e-14 1.87075e-15
 16879.9000 5.18076e-14 1.84989e-15
 16884.8000 5.18718e-14 1.85409e-15
 16889.6000 5.09135e-14 1.82770e-15
 16894.5000 5.00908e-14 1.78700e-15
 16899.3000 4.93560e-14 1.77056e-15
 16904.2000 4.93187e-14 1.77445e-15
 16909.0000 4.89552e-14 1.76607e-15
 16913.9000 4.91108e-14 1.76387e-15
 16918.7000 4.86991e-14 1.75368e-15
 16923.6000 4.87683e-14 1.75487e-15
 16928.4000 4.81925e-14 1.74021e-15
 16933.3000 4.81507e-14 1.73530e-15
 16938.1000 4.75260e-14 1.72747e-15
 16943.0000 4.69950e-14 1.70087e-15
 16947.8000 4.62060e-14 1.67616e-15
 16952.7000 4.60584e-14 1.66787e-15
 16957.5000 4.54672e-14 1.65187e-15
 16962.4000 4.56813e-14 1.64973e-15
 16967.2000 4.50480e-14 1.63860e-15
 16972.1000 4.49953e-14 1.63674e-15
 16976.9000 4.44289e-14 1.62493e-15
 16981.8000 4.45525e-14 1.62404e-15
 16986.6000 4.42264e-14 1.62230e-15
 16991.5000 4.41718e-14 1.61323e-15
 16996.3000 4.33288e-14 1.58913e-15
 17001.2000 4.29831e-14 1.56954e-15
 17006.0000 4.20936e-14 1.54891e-15
 17010.9000 4.17855e-14 1.53485e-15
 17015.7000 4.13201e-14 1.51732e-15
 17020.6000 4.19253e-14 1.53452e-15
 17025.4000 4.16036e-14 1.53079e-15
 17030.3000 4.17706e-14 1.53437e-15
 17035.1000 4.10956e-14 1.51438e-15
 17040.0000 4.13212e-14 1.52349e-15
 17044.8000 4.09066e-14 1.51530e-15
 17049.7000 4.09236e-14 1.50897e-15
 17054.5000 4.02043e-14 1.48797e-15
 17059.4000 4.03732e-14 1.49245e-15
 17064.2000 3.98371e-14 1.47853e-15
 17069.1000 4.01104e-14 1.47720e-15
 17073.9000 3.96496e-14 1.46924e-15
 17078.8000 3.97873e-14 1.47322e-15
 17083.6000 3.93762e-14 1.46280e-15
 17088.5000 3.95718e-14 1.46878e-15
 17093.3000 3.90528e-14 1.45826e-15
 17098.2000 3.94318e-14 1.45846e-15
 17103.0000 3.90699e-14 1.45269e-15
 17107.9000 3.93939e-14 1.45986e-15
 17112.7000 3.89202e-14 1.44870e-15
 17117.6000 3.93411e-14 1.45761e-15
 17122.4000 3.90140e-14 1.45728e-15
 17127.3000 3.90885e-14 1.44747e-15
 17132.1000 3.86630e-14 1.44233e-15
 17137.0000 3.92779e-14 1.45316e-15
 17141.8000 3.89759e-14 1.45259e-15
 17146.7000 3.92434e-14 1.45761e-15
 17151.5000 3.86906e-14 1.44083e-15
 17156.4000 3.91409e-14 1.45052e-15
 17161.2000 3.87031e-14 1.43932e-15
 17166.1000 3.93428e-14 1.45763e-15
 17170.9000 3.90574e-14 1.45626e-15
 17175.8000 3.95601e-14 1.46376e-15
 17180.6000 3.91335e-14 1.45414e-15
 17185.5000 3.96229e-14 1.46030e-15
 17190.3000 3.94053e-14 1.46936e-15
 17195.2000 3.99783e-14 1.48004e-15
 17200.0000 3.95708e-14 1.47096e-15
 17204.9000 4.02572e-14 1.48600e-15
 17209.7000 3.99928e-14 1.49324e-15
 17214.6000 4.04321e-14 1.50332e-15
 17219.4000 4.00074e-14 1.49382e-15
 17224.3000 4.08809e-14 1.51412e-15
 17229.1000 4.06657e-14 1.51554e-15
 17234.0000 4.13113e-14 1.52238e-15
 17238.8000 4.10382e-14 1.53548e-15
 17243.7000 4.15397e-14 1.54239e-15
 17248.5000 4.10585e-14 1.53103e-15
 17253.4000 4.16510e-14 1.53290e-15
 17258.2000 4.15840e-14 1.54199e-15
 17263.1000 4.24971e-14 1.55656e-15
 17267.9000 4.21233e-14 1.55424e-15
 17272.8000 4.25459e-14 1.55799e-15
 17277.6000 4.24303e-14 1.55874e-15
 17282.5000 4.35739e-14 1.60132e-15
 17287.3000 4.32438e-14 1.59952e-15
 17292.2000 4.38898e-14 1.60865e-15
 17297.0000 4.38127e-14 1.61076e-15
 17301.9000 4.48117e-14 1.64364e-15
 17306.7000 4.44353e-14 1.63531e-15
 17311.6000 4.52232e-14 1.65416e-15
 17316.4000 4.47990e-14 1.65405e-15
 17321.3000 4.50398e-14 1.66210e-15
 17326.1000 4.45191e-14 1.65408e-15
 17331.0000 4.51122e-14 1.67574e-15
 17335.8000 4.43233e-14 1.64392e-15
 17340.7000 4.48955e-14 1.64214e-15
 17345.5000 4.44273e-14 1.63580e-15
 17350.4000 4.49740e-14 1.64418e-15
 17355.2000 4.45949e-14 1.65618e-15
 17360.1000 4.51063e-14 1.67092e-15
 17364.9000 4.38557e-14 1.64763e-15
 17369.8000 4.40845e-14 1.63889e-15
 17374.6000 4.30003e-14 1.60580e-15
 17379.5000 4.33091e-14 1.58784e-15
 17384.3000 4.30471e-14 1.58816e-15
 17389.2000 4.39231e-14 1.61159e-15
 17394.0000 4.35353e-14 1.60008e-15
 17398.9000 4.45492e-14 1.63321e-15
 17403.7000 4.37764e-14 1.62795e-15
 17408.6000 4.39924e-14 1.62502e-15
 17413.4000 4.33839e-14 1.61501e-15
 17418.3000 4.37966e-14 1.62896e-15
 17423.1000 4.28597e-14 1.60069e-15
 17428.0000 4.32466e-14 1.59506e-15
 17432.8000 4.24370e-14 1.57669e-15
 17437.7000 4.28206e-14 1.57860e-15
 17442.5000 4.19042e-14 1.56525e-15
 17447.4000 4.22057e-14 1.55409e-15
 17452.2000 4.13468e-14 1.54737e-15
 17457.1000 4.19117e-14 1.54793e-15
 17461.9000 4.14310e-14 1.55006e-15
 17466.8000 4.20141e-14 1.56844e-15
 17471.6000 4.09430e-14 1.55488e-15
 17476.5000 4.09208e-14 1.54389e-15
 17481.3000 4.02858e-14 1.51738e-15
 17486.2000 4.10316e-14 1.53481e-15
 17491.0000 4.01947e-14 1.51127e-15
 17495.9000 4.06729e-14 1.50893e-15
 17500.7000 4.01181e-14 1.49788e-15
 17505.6000 4.06008e-14 1.51141e-15
 17510.5000 3.97821e-14 1.49933e-15
 17515.3000 4.04057e-14 1.51062e-15
 17520.2000 3.96860e-14 1.50376e-15
 17525.0000 3.99901e-14 1.49754e-15
 17529.9000 3.95823e-14 1.49094e-15
 17534.7000 4.02344e-14 1.49780e-15
 17539.6000 3.95266e-14 1.47795e-15
 17544.4000 4.01921e-14 1.49450e-15
 17549.3000 3.98520e-14 1.50210e-15
 17554.1000 4.03332e-14 1.50836e-15
 17559.0000 3.98410e-14 1.50801e-15
 17563.8000 4.01813e-14 1.50948e-15
 17568.7000 4.01125e-14 1.50381e-15
 17573.5000 4.10434e-14 1.55162e-15
 17578.4000 4.01618e-14 1.51895e-15
 17583.2000 4.09033e-14 1.53765e-15
 17588.1000 4.05744e-14 1.52434e-15
 17592.9000 4.13550e-14 1.53458e-15
 17597.8000 4.08488e-14 1.52178e-15
 17602.6000 4.13620e-14 1.53754e-15
 17607.5000 4.08001e-14 1.52585e-15
 17612.3000 4.20074e-14 1.55746e-15
 17617.2000 4.21589e-14 1.58363e-15
 17622.0000 4.27289e-14 1.59355e-15
 17626.9000 4.20381e-14 1.58215e-15
 17631.7000 4.27391e-14 1.59461e-15
 17636.6000 4.22991e-14 1.59588e-15
 17641.4000 4.28512e-14 1.58517e-15
 17646.3000 4.25328e-14 1.58061e-15
 17651.1000 4.29413e-14 1.60314e-15
 17656.0000 4.25482e-14 1.61068e-15
 17660.8000 4.35019e-14 1.66401e-15
 17665.7000 4.29594e-14 1.63593e-15
 17670.5000 4.38193e-14 1.64512e-15
 17675.4000 4.34708e-14 1.62516e-15
 17680.2000 4.44510e-14 1.63752e-15
 17685.1000 4.39515e-14 1.63269e-15
 17689.9000 4.48169e-14 1.64293e-15
 17694.8000 4.47239e-14 1.66277e-15
 17699.6000 4.56315e-14 1.69307e-15
 17704.5000 4.48968e-14 1.67908e-15
 17709.3000 4.55450e-14 1.68903e-15
 17714.2000 4.52438e-14 1.69099e-15
 17719.0000 4.60755e-14 1.70327e-15
 17723.9000 4.57188e-14 1.69734e-15
 17728.7000 4.65403e-14 1.71018e-15
 17733.6000 4.57695e-14 1.69599e-15
 17738.4000 4.64030e-14 1.70927e-15
 17743.3000 4.62500e-14 1.73260e-15
 17748.1000 4.69117e-14 1.75506e-15
 17753.0000 4.62118e-14 1.73064e-15
 17757.8000 4.67430e-14 1.73520e-15
 17762.7000 4.60934e-14 1.72884e-15
 17767.5000 4.70377e-14 1.76006e-15
 17772.4000 4.65877e-14 1.74141e-15
 17777.2000 4.75155e-14 1.75730e-15
 17782.1000 4.70272e-14 1.76492e-15
 17786.9000 4.73231e-14 1.78240e-15
 17791.8000 4.64140e-14 1.77110e-15
 17796.6000 4.73901e-14 1.77462e-15
 17801.5000 4.67574e-14 1.75914e-15
 17806.3000 4.72962e-14 1.75998e-15
 17811.2000 4.67027e-14 1.76615e-15
 17816.0000 4.70323e-14 1.77039e-15
 17820.9000 4.63518e-14 1.76218e-15
 17825.7000 4.70509e-14 1.75751e-15
 17830.6000 4.66502e-14 1.73541e-15
 17835.4000 4.72026e-14 1.73759e-15
 17840.3000 4.67273e-14 1.75132e-15
 17845.1000 4.72534e-14 1.78564e-15
 17850.0000 4.62631e-14 1.79714e-15
 17854.8000 4.67755e-14 1.80737e-15
 17859.7000 4.61581e-14 1.79204e-15
 17864.5000 4.65975e-14 1.77360e-15
 17869.4000 4.55200e-14 1.74661e-15
 17874.2000 4.60213e-14 1.74105e-15
 17879.1000 4.50609e-14 1.70883e-15
 17883.9000 4.55457e-14 1.72738e-15
 17888.8000 4.48622e-14 1.69107e-15
 17893.6000 4.56626e-14 1.69114e-15
 17898.5000 4.52376e-14 1.69898e-15
 17903.3000 4.58984e-14 1.72527e-15
 17908.2000 4.51978e-14 1.72774e-15
 17913.0000 4.53969e-14 1.74910e-15
 17917.9000 4.46780e-14 1.73291e-15
 17922.7000 4.51859e-14 1.74060e-15
 17927.6000 4.41604e-14 1.71453e-15
 17932.4000 4.48009e-14 1.73452e-15
 17937.3000 4.37633e-14 1.73472e-15
 17942.1000 4.41115e-14 1.72439e-15
 17947.0000 4.35537e-14 1.71816e-15
 17951.8000 4.40675e-14 1.69606e-15
 17956.7000 4.35298e-14 1.69475e-15
 17961.5000 4.35239e-14 1.69772e-15
 17966.4000 4.31141e-14 1.69906e-15
 17971.2000 4.33385e-14 1.71316e-15
 17976.1000 4.25503e-14 1.68486e-15
 17980.9000 4.26803e-14 1.65959e-15
 17985.8000 4.26406e-14 1.64496e-15
 17990.6000 4.30676e-14 1.66866e-15
 17995.5000 4.27507e-14 1.66790e-15
 18000.3000 4.35529e-14 1.77169e-15
 18005.2000 4.27403e-14 1.83688e-15
 18010.0000 4.27083e-14 1.91771e-15
 18014.9000 4.16225e-14 1.88014e-15
 18019.7000 4.22948e-14 1.87811e-15
 18024.6000 4.04554e-14 1.79599e-15
 18029.4000 4.25292e-14 1.84193e-15
 18034.3000 4.08816e-14 1.70048e-15
 18039.1000 4.10571e-14 1.68820e-15
 18044.0000 4.11535e-14 1.67182e-15
 18048.8000 4.18536e-14 1.67906e-15
 18053.7000 4.14304e-14 1.69379e-15
 18058.5000 4.17160e-14 1.76197e-15
 18063.4000 4.02860e-14 1.82691e-15
 18068.2000 3.97723e-14 1.81180e-15
 18073.1000 3.95956e-14 1.73191e-15
 18077.9000 4.00254e-14 1.70813e-15
 18082.8000 3.94139e-14 1.65699e-15
 18087.6000 3.93622e-14 1.62770e-15
 18092.5000 3.91804e-14 1.61511e-15
 18097.3000 3.99460e-14 1.65912e-15
 18102.2000 3.88470e-14 1.64976e-15
 18107.0000 3.97337e-14 1.74865e-15
 18111.9000 3.96795e-14 1.86418e-15
 18116.7000 3.90528e-14 1.89383e-15
 18121.6000 3.76944e-14 1.80441e-15
 18126.4000 3.88552e-14 1.87424e-15
 18131.3000 3.84316e-14 1.78463e-15
 18136.1000 3.93060e-14 1.74151e-15
 18141.0000 3.84315e-14 1.67216e-15
 18145.8000 3.82630e-14 1.62860e-15
 18150.7000 3.81818e-14 1.69069e-15
 18155.5000 3.86805e-14 1.82166e-15
 18160.4000 3.72458e-14 1.92196e-15
 18165.3000 3.82236e-14 1.87089e-15
 18170.1000 3.82634e-14 1.78107e-15
 18175.0000 3.83035e-14 1.75342e-15
 18179.8000 3.77909e-14 1.72518e-15
 18184.7000 3.80373e-14 1.73228e-15
 18189.5000 3.68178e-14 1.73450e-15
 18194.4000 3.69512e-14 1.79653e-15
 18199.2000 3.80293e-14 1.94571e-15
 18204.1000 4.23006e-14 2.39578e-15
 18208.9000 4.44844e-14 3.04965e-15
 18213.8000 4.13136e-14 3.10851e-15
 18218.6000 3.69822e-14 2.54967e-15
 18223.5000 3.78831e-14 2.19430e-15
 18228.3000 3.67893e-14 1.84472e-15
 18233.2000 3.68759e-14 1.66679e-15
 18238.0000 3.51793e-14 1.53411e-15
 18242.9000 3.52682e-14 1.50910e-15
 18247.7000 3.54599e-14 1.55508e-15
 18252.6000 3.59109e-14 1.64857e-15
 18257.4000 3.53771e-14 1.76485e-15
 18262.3000 3.52046e-14 1.91701e-15
 18267.1000 3.52520e-14 2.02242e-15
 18272.0000 3.56429e-14 1.98608e-15
 18276.8000 3.55037e-14 1.94352e-15
 18281.7000 3.69659e-14 2.04432e-15
 18286.5000 3.62856e-14 2.23534e-15
 18291.4000 3.48541e-14 2.28720e-15
 18296.2000 3.72484e-14 2.55401e-15
 18301.1000 3.47844e-14 2.29790e-15
 18305.9000 3.47218e-14 2.44013e-15
 18310.8000 3.60157e-14 2.55264e-15
 18315.6000 3.49788e-14 2.37608e-15
 18320.5000 3.44986e-14 2.29353e-15
 18325.3000 3.52500e-14 2.26786e-15
 18330.2000 3.52028e-14 2.14033e-15
 18335.0000 3.42393e-14 2.04282e-15
 18339.9000 3.40445e-14 2.04151e-15
 18344.7000 3.59855e-14 2.26362e-15
 18349.6000 4.71269e-14 3.66793e-15
 18354.4000 4.75234e-14 5.28302e-15
 18359.3000 4.82738e-14 7.22261e-15
 18364.1000 4.68042e-14 7.71910e-15
 18369.0000 4.20767e-14 6.26821e-15
 18373.8000 3.76247e-14 4.93945e-15
 18378.7000 3.27156e-14 4.00721e-15
 18383.5000 3.95766e-14 4.34863e-15
 18388.4000 4.29335e-14 4.16226e-15
 18393.2000 3.55429e-14 3.26474e-15
 18398.1000 3.32152e-14 3.14133e-15
 18402.9000 3.63199e-14 3.97888e-15
 18407.8000 3.21149e-14 4.15575e-15
 18412.6000 3.43457e-14 4.53588e-15
 18417.5000 3.75037e-14 5.27295e-15
 18422.3000 4.03393e-14 4.94123e-15
 18427.2000 3.99347e-14 3.83359e-15
 18432.0000 3.39220e-14 2.65387e-15
 18436.9000 3.57936e-14 2.35191e-15
 18441.7000 3.40759e-14 2.01340e-15
 18446.6000 3.42791e-14 1.90341e-15
 18451.4000 3.26973e-14 1.79641e-15
 18456.3000 3.35616e-14 1.84131e-15
 18461.1000 3.47961e-14 2.15330e-15
 18466.0000 3.67102e-14 2.87821e-15
 18470.8000 3.79453e-14 5.04263e-15
 18475.7000 4.02811e-14 1.15339e-14
 18480.5000 2.63499e-14 1.00864e-14
 18485.4000 4.58521e-14 1.01340e-14
 18490.2000 4.07354e-14 5.01040e-15
 18495.1000 3.47002e-14 3.41851e-15
 18499.9000 3.44462e-14 3.01100e-15
 18504.8000 3.31616e-14 2.68686e-15
 18509.6000 3.42104e-14 2.43529e-15
 18514.5000 3.27942e-14 2.11114e-15
 18519.3000 3.24757e-14 2.02448e-15
 18524.2000 3.19208e-14 2.02145e-15
 18529.0000 3.22670e-14 2.30096e-15
 18533.9000 3.69370e-14 3.73574e-15
 18538.7000 2.81475e-14 3.99540e-15
 18543.6000 3.05026e-14 3.56289e-15
 18548.4000 3.20271e-14 2.83273e-15
 18553.3000 2.97508e-14 2.32946e-15
 18558.1000 3.12155e-14 2.37022e-15
 18563.0000 3.03109e-14 2.45484e-15
 18567.8000 3.56249e-14 3.39211e-15
 18572.7000 3.68440e-14 3.83485e-15
 18577.5000 3.34351e-14 2.93987e-15
 18582.4000 3.10845e-14 2.40058e-15
 18587.2000 2.95969e-14 2.23504e-15
 18592.1000 3.22485e-14 2.59798e-15
 18596.9000 2.85441e-14 2.86385e-15
 18601.8000 2.58087e-14 3.45969e-15
 18606.6000 3.26225e-14 3.88234e-15
 18611.5000 3.06772e-14 2.46446e-15
 18616.3000 3.06680e-14 2.02029e-15
 18621.2000 2.87733e-14 1.76018e-15
 18626.0000 2.76133e-14 1.66789e-15
 18630.9000 2.84795e-14 1.72650e-15
 18635.7000 2.86080e-14 1.94149e-15
 18640.6000 2.79700e-14 2.11599e-15
 18645.4000 2.94783e-14 2.42498e-15
 18650.3000 3.03655e-14 2.32347e-15
 18655.1000 2.83750e-14 1.90658e-15
 18660.0000 2.74563e-14 1.69500e-15
 18664.8000 2.62242e-14 1.59838e-15
 18669.7000 2.62852e-14 1.70056e-15
 18674.5000 2.87967e-14 2.25861e-15
 18679.4000 2.63708e-14 2.88458e-15
 18684.2000 2.72737e-14 4.49895e-15
 18689.1000 2.85089e-14 5.17391e-15
 18693.9000 2.92559e-14 5.22848e-15
 18698.8000 2.85379e-14 6.47744e-15
 18702.1000 2.10951e-14 5.48372e-15
 18708.6000 1.67660e-14 4.79637e-15
 18715.1000 2.72496e-14 6.40493e-15
 18721.5000 3.62953e-14 6.52490e-15
 18728.0000 2.66016e-14 3.89038e-15
 18734.5000 2.69781e-14 4.26637e-15
 18740.9000 2.78418e-14 4.42705e-15
 18747.4000 3.45797e-14 4.86670e-15
 18753.9000 3.24591e-14 4.08487e-15
 18760.3000 2.84072e-14 3.73480e-15
 18766.8000 2.55158e-14 2.30050e-15
 18773.3000 2.55054e-14 1.83931e-15
 18779.7000 2.44974e-14 1.33854e-15
 18786.2000 2.42592e-14 1.11840e-15
 18792.7000 2.35883e-14 1.07065e-15
 18799.1000 2.31847e-14 1.02976e-15
 18805.6000 2.30777e-14 1.04585e-15
 18812.1000 2.23953e-14 1.10232e-15
 18818.5000 2.25975e-14 1.05635e-15
 18825.0000 2.28169e-14 9.81365e-16
 18831.5000 2.29462e-14 1.03342e-15
 18837.9000 2.24895e-14 1.11474e-15
 18844.4000 2.23193e-14 1.15908e-15
 18850.9000 2.29851e-14 1.20917e-15
 18857.3000 2.27249e-14 1.07476e-15
 18863.8000 2.15398e-14 9.42077e-16
 18870.3000 2.13773e-14 9.22315e-16
 18876.7000 2.14768e-14 8.64279e-16
 18883.2000 2.15692e-14 8.10277e-16
 18889.7000 2.17356e-14 8.73308e-16
 18896.1000 2.21507e-14 1.00246e-15
 18902.6000 2.19895e-14 1.12634e-15
 18909.1000 2.25656e-14 1.34102e-15
 18915.5000 2.20548e-14 1.32243e-15
 18922.0000 2.11690e-14 1.25157e-15
 18928.5000 2.07468e-14 1.32576e-15
 18934.9000 2.12036e-14 1.20893e-15
 18941.4000 2.19201e-14 1.03032e-15
 18947.9000 2.10849e-14 9.15559e-16
 18954.3000 2.28579e-14 9.61247e-16
 18960.8000 2.07389e-14 1.04386e-15
 18967.3000 2.15046e-14 1.14400e-15
 18973.7000 2.14855e-14 1.29392e-15
 18980.2000 2.52608e-14 1.83492e-15
 18986.7000 2.68955e-14 2.60141e-15
 18993.1000 2.18095e-14 2.83216e-15
 18999.6000 2.18929e-14 2.65662e-15
 19006.1000 2.13037e-14 2.03373e-15
 19012.5000 2.21249e-14 1.79062e-15
 19019.0000 2.08777e-14 1.60054e-15
 19025.5000 1.96964e-14 1.50193e-15
 19032.0000 2.07026e-14 1.59749e-15
 19038.4000 2.11387e-14 1.71703e-15
 19044.9000 2.15859e-14 1.86282e-15
 19051.4000 2.14513e-14 2.15290e-15
 19057.8000 1.75913e-14 2.03350e-15
 19064.3000 2.10032e-14 1.84955e-15
 19070.8000 2.11166e-14 1.42746e-15
 19077.2000 2.02680e-14 1.18306e-15
 19083.7000 1.95791e-14 1.09792e-15
 19090.2000 1.99107e-14 1.10631e-15
 19096.6000 1.99996e-14 1.15079e-15
 19103.1000 1.98086e-14 1.23341e-15
 19109.6000 1.98926e-14 1.40017e-15
 19116.0000 2.05992e-14 1.65847e-15
 19122.5000 1.95892e-14 1.79532e-15
 19129.0000 1.76662e-14 1.68892e-15
 19135.4000 1.77933e-14 1.65559e-15
 19141.9000 1.83981e-14 1.49118e-15
 19148.4000 1.82002e-14 1.33294e-15
 19154.8000 1.83047e-14 1.22956e-15
 19161.3000 1.80104e-14 1.11714e-15
 19167.8000 1.81350e-14 1.01281e-15
 19174.2000 1.80525e-14 9.21591e-16
 19180.7000 1.80264e-14 8.95055e-16
 19187.2000 1.89208e-14 9.49099e-16
 19193.6000 2.04729e-14 1.14230e-15
 19200.1000 1.86085e-14 1.27576e-15
 19206.6000 1.65165e-14 1.18985e-15
 19213.0000 1.82564e-14 1.07018e-15
 19219.5000 1.84682e-14 9.51647e-16
 19226.0000 1.79166e-14 9.01394e-16
 19232.4000 1.75214e-14 8.76104e-16
 19238.9000 1.69504e-14 8.82688e-16
 19245.4000 1.71656e-14 8.90095e-16
 19251.8000 1.74659e-14 8.71991e-16
 19258.3000 1.74494e-14 8.57425e-16
 19264.8000 1.82063e-14 9.17184e-16
 19271.2000 1.81037e-14 1.00351e-15
 19277.7000 1.75094e-14 1.03295e-15
 19284.2000 1.78483e-14 1.00234e-15
 19290.6000 1.80042e-14 9.73126e-16
 19297.1000 1.78021e-14 9.58720e-16
 19303.6000 1.78704e-14 9.76605e-16
 19310.0000 1.77461e-14 9.74692e-16
 19316.5000 1.77838e-14 9.19455e-16
 19323.0000 1.78833e-14 8.80170e-16
 19329.4000 1.76813e-14 8.48966e-16
 19335.9000 1.76651e-14 8.33007e-16
 19342.4000 1.81241e-14 8.39478e-16
 19348.8000 1.81170e-14 8.28012e-16
 19355.3000 1.81112e-14 8.13750e-16
 19361.8000 1.86559e-14 8.50319e-16
 19368.3000 1.90349e-14 8.97343e-16
 19374.7000 1.90910e-14 9.25121e-16
 19381.2000 1.93365e-14 9.49045e-16
 19387.7000 1.96755e-14 9.95505e-16
 19394.1000 1.96894e-14 1.00231e-15
 19400.6000 1.97660e-14 9.64035e-16
 19407.1000 1.97554e-14 9.09817e-16
 19413.5000 2.01901e-14 9.00114e-16
 19420.0000 2.06496e-14 8.85961e-16
 19426.5000 2.04687e-14 8.65676e-16
 19432.9000 2.07988e-14 8.81162e-16
 19439.4000 2.09518e-14 9.17168e-16
 19445.9000 2.07729e-14 9.41074e-16
 19452.3000 2.07519e-14 9.16039e-16
 19458.8000 2.10192e-14 9.08881e-16
 19465.3000 2.11765e-14 9.09022e-16
 19471.7000 2.14320e-14 9.03455e-16
 19478.2000 2.15378e-14 9.27799e-16
 19484.7000 2.15927e-14 9.23447e-16
 19491.1000 2.17301e-14 9.30340e-16
 19497.6000 2.21116e-14 9.29217e-16
 19504.1000 2.23397e-14 9.30255e-16
 19510.5000 2.28039e-14 9.35284e-16
 19517.0000 2.29530e-14 9.41704e-16
 19523.5000 2.33320e-14 9.71407e-16
 19529.9000 2.32244e-14 9.97992e-16
 19536.4000 2.31011e-14 1.01705e-15
 19542.9000 2.30343e-14 1.02938e-15
 19549.3000 2.32036e-14 1.05222e-15
 19555.8000 2.32800e-14 1.06018e-15
 19562.3000 2.35264e-14 1.07936e-15
 19568.7000 2.36077e-14 1.08531e-15
 19575.2000 2.40254e-14 1.09241e-15
 19581.7000 2.41800e-14 1.07875e-15
 19588.1000 2.46126e-14 1.06001e-15
 19594.6000 2.50202e-14 1.03629e-15
 19601.1000 2.56604e-14 1.03309e-15
 19607.5000 2.59353e-14 1.02933e-15
 19614.0000 2.62991e-14 1.02912e-15
 19620.5000 2.60436e-14 1.03717e-15
 19626.9000 2.61229e-14 1.05047e-15
 19633.4000 2.63684e-14 1.07710e-15
 19639.9000 2.64718e-14 1.08004e-15
 19646.3000 2.63106e-14 1.05261e-15
 19652.8000 2.64945e-14 1.04386e-15
 19659.3000 2.68021e-14 1.05263e-15
 19665.7000 2.69493e-14 1.04198e-15
 19672.2000 2.69404e-14 1.03342e-15
 19678.7000 2.71683e-14 1.03450e-15
 19685.1000 2.74577e-14 1.04217e-15
 19691.6000 2.78408e-14 1.04715e-15
 19698.1000 2.80464e-14 1.04407e-15
 19704.6000 2.82194e-14 1.04895e-15
 19711.0000 2.84213e-14 1.05782e-15
 19717.5000 2.86970e-14 1.08022e-15
 19724.0000 2.88090e-14 1.06877e-15
 19730.4000 2.88359e-14 1.06383e-15
 19736.9000 2.89804e-14 1.05648e-15
 19743.4000 2.89699e-14 1.06353e-15
 19749.8000 2.88962e-14 1.05027e-15
 19756.3000 2.91318e-14 1.05279e-15
 19762.8000 2.93455e-14 1.05185e-15
 19769.2000 2.95028e-14 1.04877e-15
 19775.7000 2.98276e-14 1.05831e-15
 19782.2000 2.99868e-14 1.06820e-15
 19788.6000 3.00971e-14 1.07951e-15
 19795.1000 2.99634e-14 1.08050e-15
 19801.6000 2.98285e-14 1.08583e-15
 19808.0000 2.97348e-14 1.07345e-15
 19814.5000 2.98687e-14 1.06535e-15
 19821.0000 2.99104e-14 1.05693e-15
 19827.4000 2.99977e-14 1.05177e-15
 19833.9000 2.97959e-14 1.05042e-15
 19840.4000 2.97218e-14 1.04384e-15
 19846.8000 2.97812e-14 1.04865e-15
 19853.3000 2.99042e-14 1.05327e-15
 19859.8000 2.97681e-14 1.06341e-15
 19866.2000 2.97238e-14 1.06221e-15
 19872.7000 2.95187e-14 1.06119e-15
 19879.2000 2.95130e-14 1.05042e-15
 19885.6000 2.93942e-14 1.04253e-15
 19892.1000 2.94417e-14 1.04104e-15
 19898.6000 2.89967e-14 1.03504e-15
 19905.0000 2.88897e-14 1.03031e-15
 19911.5000 2.86447e-14 1.02920e-15
 19918.0000 2.87707e-14 1.01627e-15
 19924.4000 2.86911e-14 1.01463e-15
 19930.9000 2.88953e-14 1.02171e-15
 19937.4000 2.86983e-14 1.01781e-15
 19943.8000 2.85260e-14 1.01433e-15
 19950.3000 2.81890e-14 1.01009e-15
 19956.8000 2.83184e-14 1.01585e-15
 19963.2000 2.79266e-14 1.01127e-15
 19969.7000 2.77741e-14 1.01427e-15
 19976.2000 2.72163e-14 1.01249e-15
 19982.6000 2.68847e-14 1.02061e-15
 19989.1000 2.63495e-14 1.01890e-15
 19995.6000 2.58858e-14 1.01957e-15
 20002.0000 2.55214e-14 1.03825e-15
 20008.5000 2.50020e-14 1.04726e-15
 20015.0000 2.45982e-14 1.06684e-15
 20021.4000 2.43774e-14 1.09078e-15
 20027.9000 2.37856e-14 1.10638e-15
 20034.4000 2.35295e-14 1.09966e-15
 20040.9000 2.29264e-14 1.09467e-15
 20047.3000 2.26264e-14 1.06882e-15
 20053.8000 2.21362e-14 1.04254e-15
 20060.3000 2.22345e-14 1.00436e-15
 20066.7000 2.20763e-14 9.59814e-16
 20073.2000 2.26692e-14 9.47871e-16
 20079.7000 2.29735e-14 9.36607e-16
 20086.1000 2.31702e-14 9.31935e-16
 20092.6000 2.29533e-14 9.23066e-16
 20099.1000 2.29111e-14 9.29343e-16
 20105.5000 2.24533e-14 9.39796e-16
 20112.0000 2.19331e-14 9.44678e-16
 20118.5000 2.13897e-14 9.32568e-16
 20124.9000 2.11808e-14 9.22717e-16
 20131.4000 2.10055e-14 9.15326e-16
 20137.9000 2.09848e-14 9.10394e-16
 20144.3000 2.08423e-14 9.03965e-16
 20150.8000 2.07678e-14 9.01000e-16
 20157.3000 2.03996e-14 8.77265e-16
 20163.7000 2.03181e-14 8.69006e-16
 20170.2000 2.01310e-14 8.58377e-16
 20176.7000 2.00387e-14 8.40839e-16
 20183.1000 1.97619e-14 8.22957e-16
 20189.6000 1.97691e-14 8.13986e-16
 20196.1000 1.95729e-14 7.99171e-16
 20202.5000 1.95302e-14 7.86805e-16
 20209.0000 1.93525e-14 7.76842e-16
 20215.5000 1.92382e-14 7.62419e-16
 20221.9000 1.90210e-14 7.47016e-16
 20228.4000 1.89590e-14 7.39620e-16
 20234.9000 1.87950e-14 7.28984e-16
 20241.3000 1.86756e-14 7.20753e-16
 20247.8000 1.84466e-14 7.08509e-16
 20254.3000 1.84078e-14 7.04750e-16
 20260.7000 1.82197e-14 6.96273e-16
 20267.2000 1.79973e-14 6.86835e-16
 20273.7000 1.77860e-14 6.76559e-16
 20280.1000 1.76973e-14 6.74667e-16
 20286.6000 1.74341e-14 6.63411e-16
 20293.1000 1.72943e-14 6.58548e-16
 20299.5000 1.71615e-14 6.53489e-16
 20306.0000 1.70416e-14 6.46554e-16
 20312.5000 1.68584e-14 6.38370e-16
 20318.9000 1.67212e-14 6.39913e-16
 20325.4000 1.64526e-14 6.29078e-16
 20331.9000 1.61997e-14 6.19779e-16
 20338.3000 1.60634e-14 6.12766e-16
 20344.8000 1.59748e-14 6.12145e-16
 20351.3000 1.58359e-14 6.07352e-16
 20357.7000 1.57428e-14 6.02225e-16
 20364.2000 1.56107e-14 6.00146e-16
 20370.7000 1.54140e-14 5.94161e-16
 20377.1000 1.52658e-14 5.89247e-16
 20383.6000 1.50660e-14 5.82253e-16
 20390.1000 1.49057e-14 5.75820e-16
 20396.6000 1.46951e-14 5.70214e-16
 20403.0000 1.45204e-14 5.64683e-16
 20409.5000 1.43199e-14 5.60507e-16
 20416.0000 1.41855e-14 5.56185e-16
 20422.4000 1.41058e-14 5.55218e-16
 20428.9000 1.40679e-14 5.51258e-16
 20435.4000 1.39291e-14 5.45810e-16
 20441.8000 1.38760e-14 5.42283e-16
 20448.3000 1.37610e-14 5.39146e-16
 20454.8000 1.37021e-14 5.36814e-16
 20461.2000 1.35755e-14 5.36187e-16
 20467.7000 1.35391e-14 5.35713e-16
 20474.2000 1.33545e-14 5.33510e-16
 20480.6000 1.32390e-14 5.30697e-16
 20487.1000 1.31571e-14 5.32560e-16
 20493.6000 1.31596e-14 5.37453e-16
 20500.0000 1.30181e-14 5.36987e-16
 20506.5000 1.28711e-14 5.32739e-16
 20513.0000 1.27250e-14 5.33601e-16
 20519.4000 1.27236e-14 5.35690e-16
 20525.9000 1.25345e-14 5.31527e-16
 20532.4000 1.25277e-14 5.31059e-16
 20538.8000 1.24833e-14 5.34979e-16
 20545.3000 1.24680e-14 5.33068e-16
 20551.8000 1.23685e-14 5.35194e-16
 20558.2000 1.22870e-14 5.29571e-16
 20564.7000 1.22719e-14 5.29653e-16
 20571.2000 1.23595e-14 5.25957e-16
 20577.6000 1.22656e-14 5.18824e-16
 20584.1000 1.24391e-14 5.15510e-16
 20590.6000 1.25690e-14 5.17483e-16
 20597.0000 1.27879e-14 5.15660e-16
 20603.5000 1.28440e-14 5.19044e-16
 20610.0000 1.28599e-14 5.18903e-16
 20616.4000 1.28505e-14 5.23740e-16
 20622.9000 1.28848e-14 5.28154e-16
 20629.4000 1.28118e-14 5.33821e-16
 20635.8000 1.28833e-14 5.35052e-16
 20642.3000 1.28581e-14 5.36902e-16
 20648.8000 1.30158e-14 5.40497e-16
 20655.2000 1.29088e-14 5.36451e-16
 20661.7000 1.31549e-14 5.42770e-16
 20668.2000 1.31913e-14 5.46484e-16
 20674.6000 1.34177e-14 5.49844e-16
 20681.1000 1.33678e-14 5.47933e-16
 20687.6000 1.35517e-14 5.49602e-16
 20694.0000 1.35983e-14 5.52362e-16
 20700.5000 1.38360e-14 5.57037e-16
 20707.0000 1.37330e-14 5.52448e-16
 20713.4000 1.39767e-14 5.58398e-16
 20719.9000 1.40570e-14 5.61266e-16
 20726.4000 1.43392e-14 5.70117e-16
 20732.9000 1.42639e-14 5.68326e-16
 20739.3000 1.45285e-14 5.70135e-16
 20745.8000 1.45193e-14 5.71467e-16
 20752.3000 1.48542e-14 5.78369e-16
 20758.7000 1.48890e-14 5.81293e-16
 20765.2000 1.51429e-14 5.88279e-16
 20771.7000 1.51072e-14 5.84889e-16
 20778.1000 1.53691e-14 5.90187e-16
 20784.6000 1.53617e-14 5.87908e-16
 20791.1000 1.56241e-14 5.95172e-16
 20797.5000 1.56549e-14 5.95105e-16
 20804.0000 1.59408e-14 6.05445e-16
 20810.5000 1.58648e-14 6.05616e-16
 20816.9000 1.61016e-14 6.10114e-16
 20823.4000 1.60565e-14 6.10737e-16
 20829.9000 1.62708e-14 6.17149e-16
 20836.3000 1.62383e-14 6.18539e-16
 20842.8000 1.64155e-14 6.24457e-16
 20849.3000 1.63352e-14 6.20759e-16
 20855.7000 1.65431e-14 6.25321e-16
 20862.2000 1.64577e-14 6.25672e-16
 20868.7000 1.67182e-14 6.30984e-16
 20875.1000 1.66018e-14 6.25204e-16
 20881.6000 1.67406e-14 6.28840e-16
 20888.1000 1.66363e-14 6.25679e-16
 20894.5000 1.68673e-14 6.35258e-16
 20901.0000 1.68297e-14 6.35865e-16
 20907.5000 1.70131e-14 6.42742e-16
 20913.9000 1.69065e-14 6.35287e-16
 20920.4000 1.70485e-14 6.41134e-16
 20926.9000 1.70181e-14 6.39411e-16
 20933.3000 1.71938e-14 6.45604e-16
 20939.8000 1.71300e-14 6.45177e-16
 20946.3000 1.72915e-14 6.52209e-16
 20952.7000 1.71522e-14 6.44887e-16
 20959.2000 1.72260e-14 6.42262e-16
 20965.7000 1.70736e-14 6.40014e-16
 20972.1000 1.71984e-14 6.42225e-16
 20978.6000 1.70961e-14 6.44318e-16
 20985.1000 1.71489e-14 6.44580e-16
 20991.5000 1.70370e-14 6.41340e-16
 20998.0000 1.71530e-14 6.45622e-16
 21004.5000 1.70589e-14 6.42618e-16
 21010.9000 1.70886e-14 6.41658e-16
 21017.4000 1.69372e-14 6.32441e-16
 21023.9000 1.69406e-14 6.32816e-16
 21030.3000 1.68901e-14 6.28413e-16
 21036.8000 1.70164e-14 6.33146e-16
 21043.3000 1.69451e-14 6.33357e-16
 21049.7000 1.70309e-14 6.41215e-16
 21056.2000 1.69721e-14 6.33444e-16
 21062.7000 1.69835e-14 6.38913e-16
 21069.2000 1.68703e-14 6.31046e-16
 21075.6000 1.69668e-14 6.32955e-16
 21082.1000 1.69248e-14 6.37806e-16
 21088.6000 1.69267e-14 6.37979e-16
 21095.0000 1.68572e-14 6.29677e-16
 21101.5000 1.69058e-14 6.33988e-16
 21108.0000 1.69078e-14 6.30747e-16
 21114.4000 1.69659e-14 6.43344e-16
 21120.9000 1.68862e-14 6.28890e-16
 21127.4000 1.69190e-14 6.31610e-16
 21133.8000 1.69253e-14 6.35732e-16
 21140.3000 1.69581e-14 6.37060e-16
 21146.8000 1.70489e-14 6.40298e-16
 21153.2000 1.71195e-14 6.39190e-16
 21159.7000 1.70984e-14 6.42329e-16
 21166.2000 1.71284e-14 6.49405e-16
 21172.6000 1.70963e-14 6.42797e-16
 21179.1000 1.71279e-14 6.46134e-16
 21185.6000 1.72057e-14 6.42963e-16
 21192.0000 1.72025e-14 6.47678e-16
 21198.5000 1.72104e-14 6.45915e-16
 21205.0000 1.72446e-14 6.45351e-16
 21211.4000 1.73538e-14 6.45384e-16
 21217.9000 1.73840e-14 6.52762e-16
 21224.4000 1.74725e-14 6.53208e-16
 21230.8000 1.75411e-14 6.57097e-16
 21237.3000 1.76498e-14 6.54340e-16
 21243.8000 1.76674e-14 6.67919e-16
 21250.2000 1.78028e-14 6.66754e-16
 21256.7000 1.78396e-14 6.64222e-16
 21263.2000 1.78867e-14 6.61059e-16
 21269.6000 1.79188e-14 6.66312e-16
 21276.1000 1.80563e-14 6.71876e-16
 21282.6000 1.80859e-14 6.73271e-16
 21289.0000 1.82785e-14 6.83338e-16
 21295.5000 1.82952e-14 6.82480e-16
 21302.0000 1.84001e-14 6.84240e-16
 21308.4000 1.83485e-14 6.87919e-16
 21314.9000 1.84672e-14 6.88282e-16
 21321.4000 1.84136e-14 6.90747e-16
 21327.8000 1.85773e-14 6.89960e-16
 21334.3000 1.86118e-14 6.93648e-16
 21340.8000 1.87825e-14 6.96500e-16
 21347.2000 1.87664e-14 6.96951e-16
 21353.7000 1.88772e-14 6.94996e-16
 21360.2000 1.87640e-14 6.98064e-16
 21366.6000 1.89819e-14 7.00763e-16
 21373.1000 1.89642e-14 7.12956e-16
 21379.6000 1.91216e-14 7.06538e-16
 21386.0000 1.89921e-14 7.12875e-16
 21392.5000 1.90953e-14 7.04897e-16
 21399.0000 1.89636e-14 7.03239e-16
 21405.5000 1.91522e-14 7.06309e-16
 21411.9000 1.90345e-14 7.15726e-16
 21418.4000 1.91447e-14 7.17894e-16
 21424.9000 1.89307e-14 7.12449e-16
 21431.3000 1.90947e-14 7.05833e-16
 21437.8000 1.89621e-14 7.10147e-16
 21444.3000 1.91772e-14 7.14928e-16
 21450.7000 1.89816e-14 7.12782e-16
 21457.2000 1.90758e-14 7.11023e-16
 21463.7000 1.87990e-14 7.06692e-16
 21470.1000 1.88942e-14 7.03758e-16
 21476.6000 1.88136e-14 7.03630e-16
 21483.1000 1.89088e-14 7.07035e-16
 21489.5000 1.86124e-14 6.95437e-16
 21496.0000 1.86704e-14 6.98901e-16
 21502.5000 1.84308e-14 6.94895e-16
 21508.9000 1.85497e-14 6.91822e-16
 21515.4000 1.83266e-14 6.88247e-16
 21521.9000 1.84608e-14 6.95327e-16
 21528.3000 1.82356e-14 6.92055e-16
 21534.8000 1.84065e-14 6.88884e-16
 21541.3000 1.82261e-14 6.78848e-16
 21547.7000 2.05315e-14 9.83929e-16
 21554.2000 2.14011e-14 1.23383e-15
 21560.7000 2.04555e-14 1.01127e-15
 21567.1000 1.80218e-14 7.04133e-16
 21573.6000 1.78195e-14 6.62946e-16
 21580.1000 1.76173e-14 6.70836e-16
 21586.5000 1.77277e-14 6.76882e-16
 21593.0000 1.73770e-14 6.59342e-16
 21599.5000 1.74278e-14 6.58876e-16
 21605.9000 1.70973e-14 6.51337e-16
 21612.4000 1.70990e-14 6.51573e-16
 21618.9000 1.66633e-14 6.35830e-16
 21625.3000 1.67427e-14 6.40510e-16
 21631.8000 1.62466e-14 6.29183e-16
 21638.3000 1.61744e-14 6.24385e-16
 21644.7000 1.59329e-14 6.19062e-16
 21651.2000 1.59735e-14 6.19177e-16
 21657.7000 1.54043e-14 6.01738e-16
 21664.1000 1.53321e-14 5.96372e-16
 21670.6000 1.46602e-14 5.76427e-16
 21677.1000 1.44486e-14 5.61353e-16
 21683.5000 1.40586e-14 5.51005e-16
 21690.0000 1.40535e-14 5.52454e-16
 21696.5000 1.36358e-14 5.37498e-16
 21702.9000 1.35448e-14 5.33014e-16
 21709.4000 1.32087e-14 5.21150e-16
 21715.9000 1.31527e-14 5.19485e-16
 21722.3000 1.27139e-14 5.03828e-16
 21728.8000 1.26720e-14 5.04487e-16
 21735.3000 1.23116e-14 4.92019e-16
 21741.8000 1.22687e-14 4.91736e-16
 21748.2000 1.18926e-14 4.79109e-16
 21754.7000 1.18454e-14 4.74607e-16
 21761.2000 1.14728e-14 4.62121e-16
 21767.6000 1.14655e-14 4.63493e-16
 21774.1000 1.11436e-14 4.51793e-16
 21780.6000 1.11524e-14 4.52336e-16
 21787.0000 1.08708e-14 4.46577e-16
 21793.5000 1.08569e-14 4.45544e-16
 21800.0000 1.06083e-14 4.34385e-16
 21806.4000 1.06604e-14 4.34265e-16
 21812.9000 1.05401e-14 4.33492e-16
 21819.4000 1.06315e-14 4.35267e-16
 21825.8000 1.04418e-14 4.30190e-16
 21832.3000 1.05974e-14 4.37800e-16
 21838.8000 1.04379e-14 4.33344e-16
 21845.2000 1.05387e-14 4.35803e-16
 21851.7000 1.04343e-14 4.30053e-16
 21858.2000 1.06114e-14 4.38840e-16
 21864.6000 1.05244e-14 4.33116e-16
 21871.1000 1.07172e-14 4.39790e-16
 21877.6000 1.06835e-14 4.38327e-16
 21884.0000 1.08653e-14 4.43906e-16
 21890.5000 1.08171e-14 4.53022e-16
 21897.0000 1.10745e-14 4.76216e-16
 21903.4000 1.10361e-14 4.48952e-16
 21909.9000 1.13230e-14 4.62951e-16
 21916.4000 1.13326e-14 4.59170e-16
 21922.8000 1.16114e-14 4.69911e-16
 21929.3000 1.16038e-14 4.70410e-16
 21935.8000 1.18328e-14 4.78940e-16
 21942.2000 1.18230e-14 4.77501e-16
 21948.7000 1.20585e-14 4.88551e-16
 21955.2000 1.21325e-14 4.93482e-16
 21961.6000 1.24284e-14 5.03778e-16
 21968.1000 1.26124e-14 5.08045e-16
 21974.6000 1.29574e-14 5.23013e-16
 21981.0000 1.29682e-14 5.23644e-16
 21987.5000 1.32057e-14 5.32529e-16
 21994.0000 1.31553e-14 5.31064e-16
 22000.4000 1.34574e-14 5.43131e-16
 22006.9000 1.35887e-14 5.46117e-16
 22013.4000 1.39894e-14 5.63466e-16
 22019.8000 1.40448e-14 5.59642e-16
 22026.3000 1.43589e-14 5.72063e-16
 22032.8000 1.43978e-14 5.74036e-16
 22039.2000 1.46836e-14 5.81075e-16
 22045.7000 1.47270e-14 5.83978e-16
 22052.2000 1.49796e-14 5.92634e-16
 22058.6000 1.51764e-14 6.02159e-16
 22065.1000 1.54573e-14 6.10242e-16
 22071.6000 1.54763e-14 6.10093e-16
 22078.0000 1.57872e-14 6.19301e-16
 22084.5000 1.58725e-14 6.23294e-16
 22091.0000 1.61596e-14 6.30974e-16
 22097.5000 1.61320e-14 6.32391e-16
 22103.9000 1.63850e-14 6.44349e-16
 22110.4000 1.64378e-14 6.45026e-16
 22116.9000 1.65907e-14 6.52146e-16
 22123.3000 1.67269e-14 6.52435e-16
 22129.8000 1.70073e-14 6.62198e-16
 22136.3000 1.70405e-14 6.62700e-16
 22142.7000 1.73300e-14 6.79704e-16
 22149.2000 1.74330e-14 6.77757e-16
 22155.7000 1.76317e-14 6.92512e-16
 22162.1000 1.75495e-14 6.84163e-16
 22168.6000 1.76953e-14 6.90413e-16
 22175.1000 1.77469e-14 6.87951e-16
 22181.5000 1.79787e-14 7.02080e-16
 22188.0000 1.81119e-14 7.01197e-16
 22194.5000 1.83472e-14 7.18756e-16
 22200.9000 1.83751e-14 7.16849e-16
 22207.4000 1.84918e-14 7.22790e-16
 22213.9000 1.84922e-14 7.22152e-16
 22220.3000 1.86430e-14 7.25634e-16
 22226.8000 1.87453e-14 7.30104e-16
 22233.3000 1.89156e-14 7.36464e-16
 22239.7000 1.90044e-14 7.41616e-16
 22246.2000 1.91363e-14 7.44311e-16
 22252.7000 1.90980e-14 7.41410e-16
 22259.1000 1.92166e-14 7.47861e-16
 22265.6000 1.93798e-14 7.51155e-16
 22272.1000 1.95761e-14 7.66033e-16
 22278.5000 1.95907e-14 7.63868e-16
 22285.0000 1.96669e-14 7.64952e-16
 22291.5000 1.97928e-14 7.68771e-16
 22297.9000 1.99315e-14 7.82296e-16
 22304.4000 1.98388e-14 7.66842e-16
 22310.9000 1.97717e-14 7.75215e-16
 22317.3000 1.98262e-14 7.69429e-16
 22323.8000 1.99478e-14 7.82102e-16
 22330.3000 2.00540e-14 7.80973e-16
 22336.7000 2.02316e-14 7.87410e-16
 22343.2000 2.03045e-14 7.89578e-16
 22349.7000 2.03234e-14 7.95968e-16
 22356.1000 2.03951e-14 7.97518e-16
 22362.6000 2.05798e-14 8.03064e-16
 22369.1000 2.07228e-14 8.12696e-16
 22375.5000 2.06521e-14 8.05687e-16
 22382.0000 2.06799e-14 8.07632e-16
 22388.5000 2.07643e-14 8.08562e-16
 22394.9000 2.06789e-14 8.06171e-16
 22401.4000 2.06881e-14 8.12930e-16
 22407.9000 2.08810e-14 8.10065e-16
 22414.4000 2.09228e-14 8.20178e-16
 22420.8000 2.10098e-14 8.20966e-16
 22427.3000 2.08984e-14 8.16889e-16
 22433.8000 2.09559e-14 8.11828e-16
 22440.2000 2.10542e-14 8.28630e-16
 22446.7000 2.11154e-14 8.24486e-16
 22453.2000 2.09219e-14 8.22867e-16
 22459.6000 2.08831e-14 8.13411e-16
 22466.1000 2.09131e-14 8.24074e-16
 22472.6000 2.09378e-14 8.18523e-16
 22479.0000 2.08038e-14 8.20314e-16
 22485.5000 2.09165e-14 8.12714e-16
 22492.0000 2.09325e-14 8.25671e-16
 22498.4000 2.10044e-14 8.20528e-16
 22504.9000 2.08883e-14 8.28701e-16
 22511.4000 2.08581e-14 8.19147e-16
 22517.8000 2.08223e-14 8.26047e-16
 22524.3000 2.09155e-14 8.25483e-16
 22530.8000 2.07004e-14 8.19948e-16
 22537.2000 2.05543e-14 8.11523e-16
 22543.7000 2.04111e-14 8.07271e-16
 22550.2000 2.05612e-14 8.10147e-16
 22556.6000 2.03947e-14 8.13051e-16
 22563.1000 2.03342e-14 8.03866e-16
 22569.6000 2.00873e-14 8.02665e-16
 22576.0000 2.01811e-14 8.00400e-16
 22582.5000 2.00994e-14 8.03971e-16
 22589.0000 2.00775e-14 7.95055e-16
 22595.4000 1.97852e-14 7.95067e-16
 22601.9000 1.97037e-14 7.79356e-16
 22608.4000 1.94904e-14 7.91254e-16
 22614.8000 1.94604e-14 7.81636e-16
 22621.3000 1.91796e-14 7.75908e-16
 22627.8000 1.91737e-14 7.69947e-16
 22634.2000 1.89850e-14 7.68440e-16
 22640.7000 1.89215e-14 7.57261e-16
 22647.2000 1.85811e-14 7.50692e-16
 22653.6000 1.86358e-14 7.48501e-16
 22660.1000 1.84415e-14 7.47397e-16
 22666.6000 1.83543e-14 7.38893e-16
 22673.0000 1.78769e-14 7.29694e-16
 22679.5000 1.77745e-14 7.26596e-16
 22686.0000 1.74945e-14 7.14684e-16
 22692.4000 1.75092e-14 7.13779e-16
 22698.9000 1.73072e-14 7.12358e-16
 22705.4000 1.72025e-14 7.06229e-16
 22711.8000 1.67060e-14 6.89269e-16
 22718.3000 1.65717e-14 6.79708e-16
 22724.8000 1.62896e-14 6.76015e-16
 22731.2000 1.63796e-14 6.75419e-16
 22737.7000 1.61280e-14 6.70683e-16
 22744.2000 1.59249e-14 6.61782e-16
 22750.6000 1.53884e-14 6.42955e-16
 22757.1000 1.51700e-14 6.37064e-16
 22763.6000 1.47930e-14 6.24546e-16
 22770.1000 1.47567e-14 6.17625e-16
 22776.5000 1.44567e-14 6.07550e-16
 22783.0000 1.44683e-14 6.05011e-16
 22789.5000 1.41455e-14 5.97188e-16
 22795.9000 1.40416e-14 5.92472e-16
 22802.4000 1.36507e-14 5.79767e-16
 22808.9000 1.35831e-14 5.77843e-16
 22815.3000 1.32324e-14 5.68502e-16
 22821.8000 1.30353e-14 5.63121e-16
 22828.3000 1.25957e-14 5.48398e-16
 22834.7000 1.24757e-14 5.41372e-16
 22841.2000 1.21940e-14 5.35902e-16
 22847.7000 1.21710e-14 5.31740e-16
 22854.1000 1.16796e-14 5.13372e-16
 22860.6000 1.17155e-14 5.11634e-16
 22867.1000 1.14119e-14 5.00732e-16
 22873.5000 1.13791e-14 4.96046e-16
 22880.0000 1.10573e-14 4.90029e-16
 22886.5000 1.09656e-14 4.90913e-16
 22892.9000 1.05700e-14 4.76473e-16
 22899.4000 1.04548e-14 4.72844e-16
 22905.9000 1.01454e-14 4.61531e-16
 22912.3000 1.01367e-14 4.57001e-16
 22918.8000 9.82445e-15 4.46464e-16
 22925.3000 9.84714e-15 4.48147e-16
 22931.7000 9.51896e-15 4.38592e-16
 22938.2000 9.45728e-15 4.34934e-16
 22944.7000 9.14706e-15 4.25683e-16
 22951.1000 9.09407e-15 4.22820e-16
 22957.6000 8.80801e-15 4.13167e-16
 22964.1000 8.80907e-15 4.10501e-16
 22970.5000 8.50038e-15 3.98149e-16
 22977.0000 8.41000e-15 3.93627e-16
 22983.5000 8.10329e-15 3.85299e-16
 22989.9000 8.03624e-15 3.85639e-16
 22996.4000 7.78764e-15 3.77872e-16
 23002.9000 7.83193e-15 3.80126e-16
 23009.3000 7.55680e-15 3.68352e-16
 23015.8000 7.56683e-15 3.64140e-16
 23022.3000 7.28751e-15 3.54963e-16
 23028.7000 7.24950e-15 3.53929e-16
 23035.2000 7.01491e-15 3.46735e-16
 23041.7000 6.97251e-15 3.45854e-16
 23048.1000 6.73949e-15 3.36099e-16
 23054.6000 6.84554e-15 3.39120e-16
 23061.1000 6.66587e-15 3.31540e-16
 23067.5000 6.70462e-15 3.32430e-16
 23074.0000 6.49880e-15 3.24197e-16
 23080.5000 6.52859e-15 3.24979e-16
 23086.9000 6.39155e-15 3.20206e-16
 23093.4000 6.46222e-15 3.21168e-16
 23099.9000 6.26494e-15 3.12417e-16
 23106.4000 6.34501e-15 3.14953e-16
 23112.8000 6.27677e-15 3.12974e-16
 23119.3000 6.35465e-15 3.16613e-16
 23125.8000 6.19505e-15 3.09249e-16
 23132.2000 6.20360e-15 3.08383e-16
 23138.7000 6.21643e-15 3.08758e-16
 23145.2000 6.31599e-15 3.13157e-16
 23151.6000 6.21270e-15 3.11527e-16
 23158.1000 6.19273e-15 3.13784e-16
 23164.6000 6.10676e-15 3.16552e-16
 23171.0000 6.15290e-15 3.25782e-16
 23177.5000 6.07744e-15 3.25520e-16
 23184.0000 6.28144e-15 3.29403e-16
 23190.4000 6.32709e-15 3.26569e-16
 23196.9000 6.41529e-15 3.26296e-16
 23203.4000 6.41428e-15 3.25725e-16
 23209.8000 6.55454e-15 3.30581e-16
 23216.3000 6.59321e-15 3.31316e-16
 23222.8000 6.78168e-15 3.39309e-16
 23229.2000 6.78368e-15 3.39126e-16
 23235.7000 6.94664e-15 3.42652e-16
 23242.2000 6.92767e-15 3.40403e-16
 23248.6000 7.10942e-15 3.48122e-16
 23255.1000 7.14467e-15 3.51030e-16
 23261.6000 7.31311e-15 3.57487e-16
 23268.0000 7.36760e-15 3.59755e-16
 23274.5000 7.53167e-15 3.64489e-16
 23281.0000 7.47183e-15 3.64069e-16
 23287.4000 7.70701e-15 3.70340e-16
 23293.9000 7.70402e-15 3.69140e-16
 23300.4000 7.92436e-15 3.78372e-16
 23306.8000 7.84977e-15 3.76477e-16
 23313.3000 8.16617e-15 3.86595e-16
 23319.8000 8.21340e-15 3.88992e-16
 23326.2000 8.44618e-15 3.98458e-16
 23332.7000 8.53637e-15 4.02316e-16
 23339.2000 8.76141e-15 4.08632e-16
 23345.6000 8.78116e-15 4.09385e-16
 23352.1000 9.06730e-15 4.22668e-16
 23358.6000 9.15254e-15 4.27312e-16
 23365.0000 9.40788e-15 4.35776e-16
 23371.5000 9.50469e-15 4.39432e-16
 23378.0000 9.79294e-15 4.49214e-16
 23384.4000 9.89255e-15 4.56335e-16
 23390.9000 1.00393e-14 4.61777e-16
 23397.4000 9.97628e-15 4.62377e-16
 23403.8000 1.02147e-14 4.70929e-16
 23410.3000 1.03270e-14 4.78037e-16
 23416.8000 1.07470e-14 4.92191e-16
 23423.2000 1.08436e-14 4.95054e-16
 23429.7000 1.11251e-14 5.02646e-16
 23436.2000 1.11011e-14 4.99354e-16
 23442.6000 1.13783e-14 5.09366e-16
 23449.1000 1.13908e-14 5.11369e-16
 23455.6000 1.16198e-14 5.18754e-16
 23462.1000 1.16260e-14 5.22913e-16
 23468.5000 1.18160e-14 5.29232e-16
 23475.0000 1.18656e-14 5.30004e-16
 23481.5000 1.21795e-14 5.42484e-16
 23487.9000 1.22998e-14 5.50013e-16
 23494.4000 1.25442e-14 5.57831e-16
 23500.9000 1.25781e-14 5.60113e-16
 23507.3000 1.27861e-14 5.70149e-16
 23513.8000 1.28307e-14 5.75299e-16
 23520.3000 1.30494e-14 5.82949e-16
 23526.7000 1.30801e-14 5.83494e-16
 23533.2000 1.33791e-14 5.94521e-16
 23539.7000 1.34977e-14 5.97168e-16
 23546.1000 1.35529e-14 5.92446e-16
 23552.6000 1.35515e-14 5.92000e-16
 23559.1000 1.37805e-14 6.00300e-16
 23565.5000 1.37981e-14 6.03827e-16
 23572.0000 1.39953e-14 6.06247e-16
 23578.5000 1.40471e-14 6.16025e-16
 23584.9000 1.40885e-14 6.15859e-16
 23591.4000 1.40986e-14 6.15923e-16
 23597.9000 1.44236e-14 6.19535e-16
 23604.3000 1.44604e-14 6.23533e-16
 23610.8000 1.44859e-14 6.17582e-16
 23617.3000 1.44741e-14 6.17957e-16
 23623.7000 1.46187e-14 6.24020e-16
 23630.2000 1.46739e-14 6.25440e-16
 23636.7000 1.48339e-14 6.32731e-16
 23643.1000 1.48500e-14 6.34617e-16
 23649.6000 1.48811e-14 6.37866e-16
 23656.1000 1.47667e-14 6.28201e-16
 23662.5000 1.48076e-14 6.26982e-16
 23669.0000 1.46773e-14 6.32417e-16
 23675.5000 1.46855e-14 6.30880e-16
 23681.9000 1.47682e-14 6.31802e-16
 23688.4000 1.48528e-14 6.33117e-16
 23694.9000 1.46562e-14 6.32773e-16
 23701.3000 1.44274e-14 6.26780e-16
 23707.8000 1.42939e-14 6.46137e-16
 23714.3000 1.43222e-14 6.65463e-16
 23720.7000 1.43548e-14 6.56384e-16
 23727.2000 1.44211e-14 6.51471e-16
 23733.7000 1.44409e-14 6.42789e-16
 23740.1000 1.44606e-14 6.29777e-16
 23746.6000 1.44433e-14 6.25536e-16
 23753.1000 1.43202e-14 6.11844e-16
 23759.5000 1.41432e-14 6.12424e-16
 23766.0000 1.39469e-14 6.04404e-16
 23772.5000 1.37914e-14 6.03147e-16
 23779.0000 1.36650e-14 5.99994e-16
 23785.4000 1.37313e-14 6.02523e-16
 23791.9000 1.36837e-14 5.96125e-16
 23798.4000 1.36138e-14 5.98822e-16
 23804.8000 1.34988e-14 5.90078e-16
 23811.3000 1.34485e-14 5.90296e-16
 23817.8000 1.33216e-14 5.78052e-16
 23824.2000 1.32428e-14 5.74697e-16
 23830.7000 1.28949e-14 5.70343e-16
 23837.2000 1.26344e-14 5.67525e-16
 23843.6000 1.26081e-14 5.60904e-16
 23850.1000 1.26517e-14 5.72528e-16
 23856.6000 1.24247e-14 5.54562e-16
 23863.0000 1.23277e-14 5.53658e-16
 23869.5000 1.21042e-14 5.42376e-16
 23876.0000 1.20411e-14 5.45941e-16
 23882.4000 1.18889e-14 5.31385e-16
 23888.9000 1.18717e-14 5.36247e-16
 23895.4000 1.15896e-14 5.21885e-16
 23901.8000 1.12984e-14 5.14549e-16
 23908.3000 1.10557e-14 4.97002e-16
 23914.8000 1.10578e-14 5.08146e-16
 23921.2000 1.08711e-14 5.00017e-16
 23927.7000 1.07562e-14 4.99978e-16
 23934.2000 1.04700e-14 4.77714e-16
 23940.6000 1.03781e-14 4.71115e-16
 23947.1000 1.01115e-14 4.63543e-16
 23953.6000 9.95869e-15 4.62572e-16
 23960.0000 9.70508e-15 4.48212e-16
 23966.5000 9.59896e-15 4.53389e-16
 23973.0000 9.26292e-15 4.43714e-16
 23979.4000 9.14260e-15 4.36870e-16
 23985.9000 8.93191e-15 4.23322e-16
 23992.4000 8.85699e-15 4.18039e-16
 23998.8000 8.57364e-15 4.04179e-16
 24005.3000 8.44044e-15 4.05141e-16
 24011.8000 8.31675e-15 3.97688e-16
 24018.2000 8.26684e-15 3.97924e-16
 24024.7000 7.98199e-15 3.85601e-16
 24031.2000 7.87213e-15 3.83623e-16
 24037.6000 7.62708e-15 3.76358e-16
 24044.1000 7.52615e-15 3.78389e-16
 24050.6000 7.32882e-15 3.70810e-16
 24057.0000 7.35149e-15 3.71471e-16
 24063.5000 7.11259e-15 3.62211e-16
 24070.0000 7.04442e-15 3.63609e-16
 24076.4000 6.86134e-15 3.54927e-16
 24082.9000 6.78102e-15 3.52634e-16
 24089.4000 6.60019e-15 3.40410e-16
 24095.8000 6.67628e-15 3.45085e-16
 24102.3000 6.54776e-15 3.40662e-16
 24108.8000 6.50320e-15 3.37320e-16
 24115.3000 6.38180e-15 3.32175e-16
 24121.7000 6.44927e-15 3.35141e-16
 24128.2000 6.32640e-15 3.31202e-16
 24134.7000 6.35636e-15 3.34027e-16
 24141.1000 6.15651e-15 3.27795e-16
 24147.6000 6.15919e-15 3.32799e-16
 24154.1000 6.17495e-15 3.41859e-16
 24160.5000 6.39622e-15 3.57192e-16
 24167.0000 6.40819e-15 3.55575e-16
 24173.5000 6.40971e-15 3.55578e-16
 24179.9000 6.25060e-15 3.48023e-16
 24186.4000 6.37016e-15 3.59083e-16
 24192.9000 6.36291e-15 3.62632e-16
 24199.3000 6.62624e-15 3.66822e-16
 24205.8000 6.59994e-15 3.55277e-16
 24212.3000 6.83564e-15 3.55436e-16
 24218.7000 6.58562e-15 3.39235e-16
 24225.2000 6.73990e-15 3.46179e-16
 24231.7000 6.68658e-15 3.43914e-16
 24238.1000 6.94008e-15 3.56426e-16
 24244.6000 6.99249e-15 3.63201e-16
 24251.1000 7.26260e-15 3.75567e-16
 24257.5000 7.28637e-15 3.77380e-16
 24264.0000 7.46929e-15 3.82325e-16
 24270.5000 7.47840e-15 3.81819e-16
 24276.9000 7.75054e-15 3.89291e-16
 24283.4000 7.76598e-15 3.84532e-16
 24289.9000 7.99478e-15 3.93938e-16
 24296.3000 8.02676e-15 3.90765e-16
 24302.8000 8.32035e-15 4.05480e-16
 24309.3000 8.38448e-15 4.04083e-16
 24315.7000 8.67237e-15 4.15670e-16
 24322.2000 8.75295e-15 4.19245e-16
 24328.7000 9.16370e-15 4.43334e-16
 24335.1000 9.12698e-15 4.49112e-16
 24341.6000 9.40749e-15 4.76777e-16
 24348.1000 9.34490e-15 5.54964e-16
 24354.5000 9.71812e-15 5.44434e-16
 24361.0000 9.94805e-15 5.56990e-16
 24367.5000 1.08178e-14 5.62266e-16
 24373.9000 1.07803e-14 5.33849e-16
 24380.4000 1.08814e-14 5.23300e-16
 24386.9000 1.06829e-14 5.06887e-16
 24393.3000 1.09162e-14 5.02577e-16
 24399.8000 1.10013e-14 5.04172e-16
 24406.3000 1.12427e-14 5.16827e-16
 24412.7000 1.12473e-14 5.15238e-16
 24419.2000 1.14948e-14 5.29490e-16
 24425.7000 1.14274e-14 5.24897e-16
 24432.1000 1.18703e-14 5.41561e-16
 24438.6000 1.21073e-14 5.51014e-16
 24445.1000 1.24711e-14 5.71975e-16
 24451.5000 1.23914e-14 5.77784e-16
 24458.0000 1.25150e-14 5.98928e-16
 24464.5000 1.26523e-14 6.30502e-16
 24471.0000 1.32282e-14 6.64660e-16
 24477.4000 1.33504e-14 6.57532e-16
 24483.9000 1.34892e-14 6.46800e-16
 24490.4000 1.35032e-14 6.28764e-16
 24496.8000 1.36145e-14 6.34010e-16
 24503.3000 1.35135e-14 6.56115e-16
 24509.8000 1.39365e-14 7.01978e-16
 24516.2000 1.43089e-14 7.22987e-16
 24522.7000 1.44952e-14 6.96121e-16
 24529.2000 1.40987e-14 6.66391e-16
 24535.6000 1.41062e-14 6.50572e-16
 24542.1000 1.41845e-14 6.50923e-16
 24548.6000 1.46754e-14 6.85137e-16
 24555.0000 1.50282e-14 6.96273e-16
 24561.5000 1.52687e-14 6.98156e-16
 24568.0000 1.51587e-14 6.94026e-16
 24574.4000 1.53350e-14 6.81894e-16
 24580.9000 1.48759e-14 6.62266e-16
 24587.4000 1.51851e-14 6.59385e-16
 24593.8000 1.51473e-14 6.66262e-16
 24600.3000 1.53489e-14 6.65350e-16
 24606.8000 1.52621e-14 6.72834e-16
 24613.2000 1.53146e-14 6.69053e-16
 24619.7000 1.52205e-14 6.86733e-16
 24626.2000 1.52662e-14 7.14274e-16
 24632.6000 1.54712e-14 7.36342e-16
 24639.1000 1.60294e-14 7.57154e-16
 24645.6000 1.60785e-14 7.42705e-16
 24652.0000 1.60210e-14 7.28350e-16
 24658.5000 1.57438e-14 7.03807e-16
 24665.0000 1.55389e-14 6.90445e-16
 24671.4000 1.53722e-14 6.81262e-16
 24677.9000 1.55063e-14 7.04081e-16
 24684.4000 1.55525e-14 7.06888e-16
 24690.8000 1.58625e-14 7.10311e-16
 24697.3000 1.59957e-14 7.09333e-16
 24703.8000 1.59997e-14 7.13272e-16
 24710.2000 1.54578e-14 7.08292e-16
 24716.7000 1.52053e-14 7.30222e-16
 24723.2000 1.52060e-14 7.99680e-16
 24729.6000 1.64323e-14 8.83902e-16
 24736.1000 1.70130e-14 8.42429e-16
 24742.6000 1.62898e-14 7.67919e-16
 24749.0000 1.57202e-14 7.29332e-16
 24755.5000 1.54640e-14 7.04439e-16
 24762.0000 1.53157e-14 6.93761e-16
 24768.4000 1.52005e-14 6.89645e-16
 24774.9000 1.51028e-14 6.84730e-16
 24781.4000 1.49593e-14 6.81699e-16
 24787.9000 1.47407e-14 6.81422e-16
 24794.3000 1.47307e-14 6.87764e-16
 24800.8000 1.46593e-14 7.16212e-16
 24807.3000 1.46389e-14 7.37097e-16
 24813.7000 1.48095e-14 7.66417e-16
 24820.2000 1.47770e-14 7.51405e-16
 24826.7000 1.46787e-14 7.33162e-16
 24833.1000 1.43576e-14 7.18843e-16
 24839.6000 1.40253e-14 7.34351e-16
 24846.1000 1.42058e-14 7.41215e-16
 24852.5000 1.43245e-14 7.31483e-16
 24859.0000 1.40157e-14 6.98218e-16
 24865.5000 1.38197e-14 7.07321e-16
 24871.9000 1.33495e-14 7.02821e-16
 24878.4000 1.31961e-14 7.55216e-16
 24884.9000 1.33311e-14 7.71055e-16
 24891.3000 1.37988e-14 7.58391e-16
 24897.8000 1.36483e-14 7.25882e-16
 24904.3000 1.31241e-14 6.80097e-16
 24910.7000 1.25839e-14 6.45535e-16
 24917.2000 1.23214e-14 6.62467e-16
 24923.7000 1.22888e-14 6.54720e-16
 24930.1000 1.22300e-14 6.82879e-16
 24936.6000 1.16686e-14 6.69052e-16
 24943.1000 1.16060e-14 7.00127e-16
 24949.5000 1.15286e-14 7.05821e-16
 24956.0000 1.19673e-14 7.13654e-16
 24962.5000 1.18689e-14 6.53100e-16
 24968.9000 1.13905e-14 6.05031e-16
 24975.4000 1.07912e-14 5.69822e-16
 24981.9000 1.06316e-14 5.53521e-16
 24988.3000 1.05796e-14 5.45358e-16
 24994.8000 1.05054e-14 5.48630e-16
 25001.3000 1.03604e-14 5.33797e-16
 25007.7000 1.02746e-14 5.41702e-16
 25014.2000 9.85909e-15 5.19823e-16
 25020.7000 9.51552e-15 5.29086e-16
 25027.1000 9.08004e-15 5.31541e-16
 25033.6000 9.40579e-15 5.73453e-16
 25040.1000 9.48106e-15 6.07473e-16
 25046.5000 9.39754e-15 6.13576e-16
 25053.0000 8.88929e-15 6.02722e-16
 25059.5000 8.53825e-15 5.65243e-16
 25065.9000 8.67081e-15 5.52291e-16
 25072.4000 8.79699e-15 5.24865e-16
 25078.9000 8.40650e-15 4.93146e-16
 25085.3000 8.03347e-15 4.70569e-16
 25091.8000 7.64202e-15 4.66544e-16
 25098.3000 7.61932e-15 4.97937e-16
 25104.7000 7.15354e-15 5.02833e-16
