SIMPLE  =                    T / Written by IDL:  Tue Jun 17 09:33:44 2014      
BITPIX  =                  -32 /bits per data value                             
NAXIS   =                    2 /number of axes                                  
NAXIS1  =                 3892 /Number of positions along axis 1                
NAXIS2  =                    3 /Number of positions along axis 2                
ORIGIN  = 'Institute for Astronomy' /                                           
TELESCOP= 'NASA IRTF'          /                                                
INSTRUME= 'SPeX, IRTF Spectrograph' /                                           
OBSERVER= 'Marion,Sand,Bochanski' /                                             
OBJECT  = 'HIP52478'           /                                                
IRAFNAME= 'SN14J_merge'        /                                                
TIME_OBS= '11:23:15.4554'      / Average UT TIME OF ACQISTION ('hh:mm:ss.ss')   
DATE_OBS= '2014-01-25'         / UT DATE OF ACQUISITION ('yyyy/mm/dd')          
ITIME   =            4.0000000 / INTEGRATION TIME IN SECONDS                    
CO_ADDS =                    2 / NUMBER OF INTEGRATIONS                         
NDR     =                    7 / Number of Non-Destructive Reads                
SLOWCNT =                   20 / Number of Slow Counts                          
TABLE_MS=            512.45200 / msec to clock out array                        
ROTATOR =            343.45000 / Rotator_Mechanical_Angle; pos=686904           
POSANGLE=            213.10000 / Average Sky_Position_Angle                     
SLIT    = '0.3x15  '           / menu=2,pos=89000                               
GRAT    = 'ShortXD '           / menu=0,pos=719950                              
PLATE_SC=           0.15000000 / PlateScale arcsec/pixel                        
RA      = '+10:43:43.70 '      / Right Ascension                                
DEC     = '+57:11:56.1 '       / Declination                                    
HA      = '+01:24:11.0025'     / Average Hour Angle                             
AIRMASS =              1.54500 / Average Air Mass                               
EPOCH   =            2000.0000 / Epoch                                          
MODENAME= 'ShortXD '           / Spectroscopy mode                              
FLAT    = 'flat50-54.fits'     / Flat field image                               
NAPS    =                    1 / Number of apertures                            
NORDERS =                    1 / Number of orders                               
ORDERS  = '0       '           / Order numbers                                  
START   =                    0 / Array column of first FITS array column        
STOP    =                 3891 / Array column of last FITS array column         
SLTH_PIX=            100.00000 / Slit height in pixels                          
SLTH_ARC=            15.000000 / Slit height in arcseconds                      
SLTW_PIX=            2.0000000 / Slit width in pixels                           
SLTW_ARC=           0.30000000 / Slit width in arcseconds                       
APPOSO03= '3.65436 '           / Aperture positions (arcsec) for order 03       
APPOSO04= '3.63544 '           / Aperture positions (arcsec) for order 04       
APPOSO05= '3.59981 '           / Aperture positions (arcsec) for order 05       
APPOSO06= '3.56324 '           / Aperture positions (arcsec) for order 06       
APPOSO07= '3.51862 '           / Aperture positions (arcsec) for order 07       
APPOSO08= '3.49755 '           / Aperture positions (arcsec) for order 08       
PSFRAD  =            2.2000000 / Optimal extraction PSF radius in arcseconds    
APRADIUS=            1.0000000 / Aperture radius in arcseconds                  
BGSTART =            2.2000000 / Background start radius in arcseconds          
BGWIDTH =            2.0000000 / Background width in arcseconds                 
BGORDER =            0.0000000 / Background polynomial fit degree               
WAVECAL = 'wavecal55-57.fits'  / Wavecal file used for wavelength calibration   
XUNITS  = 'um      '           / Units of the X axis                            
YUNITS  = 'ergss-1cm-2A-1'     /Units of the Y axis                             
XTITLE  = '!7k!5 (!7l!5m)'     / IDL X title                                    
YTITLE  = '!5f!D!7k!N!5 (ergs s!E-1!N cm!E-2!N !5!sA!r!u!9 %!5!n!E-1!N)' / IDL Y
VERSION = 'v3.4    '           / Spextool version                               
RES     =            2000.0000 / Average spectral resolving power               
DISPO03 =        0.00053751100 / Dispersion (um pixel-1) for order 03           
DISPO04 =        0.00040319100 / Dispersion (um pixel-1) for order 04           
DISPO05 =        0.00032272900 / Dispersion (um pixel-1) for order 05           
DISPO06 =        0.00026919600 / Dispersion (um pixel-1) for order 06           
DISPO07 =        0.00023105200 / Dispersion (um pixel-1) for order 07           
DISPO08 =        0.00020252500 / Dispersion (um pixel-1) for order 08           
DAIRMASS=            -0.222000 / Average airmass difference between std and obj 
HISTORY The output FITS files contain a 3-D array of data consisting ofsets of  
HISTORY  triplet arrays of data for each aperture and each order,where each tr  
HISTORY iplet is composed of an array for the wavelength,an array for the flux  
HISTORY , and an array for the error. The tripletsfor each aperture are stacke  
HISTORY d behind one another, followed bythe triplets for the next order, etc.  
HISTORY  If no orders have beenskipped or deslected in the extraction process,  
HISTORY  the contents ofaperture Y in order X can be found as follows:lambda =  
HISTORY array[*,0,( X - (smallest order number))*naps + (Y-1)], flux   =array[  
HISTORY *,1,( X - (smallest order number))*naps + (Y-1)], error  =array[*,2,(   
HISTORY X - (smallest order number))*naps + (Y-1)]  Forexample, for an SXD fil  
HISTORY e with two apertures, the wavelengtharray for aperture 1 in order 3 is  
HISTORY  located in array [*,0,0], theflux is in array [*,1,0] and the error i  
HISTORY s in array [*,2,0]. Foraperture 2, the wavelength is in array [*,0,1],  
HISTORY  the flux is inarray [*,1,1] and the error is in array [*,2,1]. For or  
HISTORY der 4,the flux for aperture 1 is in array [*,1,2], while the flux fora  
HISTORY perture 2 is in array [*,1,3]. For order 5, the fluxes for thetwo aper  
HISTORY tures are in arrays [*,1,4] and [*,1,5], etc.  Thespectra have been co  
HISTORY rrected for non-linearity.                                              
HISTORY                                                                         
HISTORY Xcombspec History                                                       
HISTORY                                                                         
HISTORY The spectra were combined using a Robust Weighted Mean.  The robust     
HISTORY threshold was 8.00000.  The files spectra0024.fits, spectra0025.fits,   
HISTORY spectra0026.fits, spectra0027.fits, spectra0028.fits,                   
HISTORY spectra0029.fits, spectra0030.fits, spectra0031.fits,                   
HISTORY spectra0032.fits, spectra0033.fits, spectra0034.fits,                   
HISTORY spectra0035.fits were combined.    Aperture 01 Info: The scale          
HISTORY factors were determined using order 05.  The scale factors are          
HISTORY 1.03829, 1.11579, 0.983770, 0.950954, 0.931083, 1.05311, 1.01678,       
HISTORY 0.919712, 0.903883, 1.06481, 1.07070, 0.921588.  The median RMS         
HISTORY deviation in each order is 6.48820, 6.01926, 3.90797, 8.53554,          
HISTORY 6.59353, 3.18024.    The spectral shapes have been corrected.           
HISTORY                                                                         
HISTORY Xtellcor History                                                        
HISTORY                                                                         
HISTORY This spectrum was telluric corrected using the telluric correction      
HISTORY spectra SN14J_tellcor_tellcor.fits.  The B and V magnitudes of          
HISTORY HIP52478 are 6.50000, and 6.47000 respectively.  The velocity shift     
HISTORY of Vega is 17.7851 km s-1.  The Vega model was modified using the       
HISTORY deconvolution method.  The maximum deviation and rms deviation          
HISTORY between the modified Vega model and the data over the kernel            
HISTORY wavelength range are 6.20989 % and 2.55297 %, respectively.  The        
HISTORY telluric correction spectra for aperture 01 were shifted by             
HISTORY 0.0296204, 0.150533, -0.415572, -0.707478, -0.838541, 0.321893 pixels.  
HISTORY                                                                         
HISTORY Xmergeorders History                                                    
HISTORY                                                                         
HISTORY This merged spectrum was derived from aperture 01 of file               
HISTORY SN14J_tellcor.fits.  The scaled factors for orders 3, 4, 5, 6, 7, 8     
HISTORY are 1.00000, 1.00186, 1.01884, 1.00627, 1.01464, 0.980164               
HISTORY respectively.                                                           
END                                                                             
  7809.4500 7.01178e-14 1.65007e-14
  7811.8800 9.74908e-14 2.40880e-14
  7814.3000 1.04220e-13 2.61399e-14
  7816.7200 1.06275e-13 2.59712e-14
  7819.1400 8.72066e-14 1.92493e-14
  7821.5600 6.83425e-14 1.67369e-14
  7823.9900 6.34850e-14 1.55086e-14
  7826.4100 6.86905e-14 1.65274e-14
  7828.8300 9.21636e-14 2.22509e-14
  7831.2500 1.09824e-13 2.62197e-14
  7833.6800 1.04202e-13 2.64102e-14
  7836.1000 1.03179e-13 2.60196e-14
  7838.5200 1.08128e-13 2.42156e-14
  7840.9400 8.81117e-14 2.10399e-14
  7843.3600 6.39137e-14 1.61357e-14
  7845.7900 7.46488e-14 1.74502e-14
  7848.2100 8.42196e-14 1.84473e-14
  7850.6300 8.71905e-14 1.83217e-14
  7853.0500 8.05407e-14 1.75694e-14
  7855.4700 6.53445e-14 1.56468e-14
  7857.9000 6.22248e-14 1.40116e-14
  7860.3200 6.83711e-14 1.48142e-14
  7862.7400 7.90141e-14 1.73507e-14
  7865.1600 9.47441e-14 2.13329e-14
  7867.5900 8.09912e-14 1.67898e-14
  7870.0100 5.56599e-14 1.16347e-14
  7872.4300 5.53392e-14 1.17447e-14
  7874.8500 7.26148e-14 1.51132e-14
  7877.2700 6.36774e-14 1.41297e-14
  7879.7000 5.93288e-14 1.33551e-14
  7882.1200 5.57612e-14 1.27141e-14
  7884.5400 6.35407e-14 1.36474e-14
  7886.9600 6.18120e-14 1.33953e-14
  7889.3900 6.22966e-14 1.35437e-14
  7891.8100 5.37957e-14 1.18278e-14
  7894.2300 5.62342e-14 1.21107e-14
  7896.6500 5.40242e-14 1.19431e-14
  7899.0700 6.05375e-14 1.24995e-14
  7901.5000 6.29822e-14 1.28152e-14
  7903.9200 6.13042e-14 1.22320e-14
  7906.3400 4.91279e-14 1.06499e-14
  7908.7600 4.93357e-14 9.81574e-15
  7911.1900 5.26912e-14 1.08967e-14
  7913.6100 6.37548e-14 1.20874e-14
  7916.0300 5.47608e-14 1.05062e-14
  7918.4500 5.25711e-14 1.05003e-14
  7920.8700 4.68221e-14 9.84172e-15
  7923.3000 4.88362e-14 9.21626e-15
  7925.7200 4.13024e-14 8.50929e-15
  7928.1400 7.16710e-14 1.32083e-14
  7930.5600 6.34566e-14 1.19988e-14
  7932.9800 4.92760e-14 9.51401e-15
  7935.4100 5.28654e-14 1.03467e-14
  7937.8300 5.86039e-14 1.13856e-14
  7940.2500 5.20200e-14 9.59801e-15
  7942.6700 4.57955e-14 9.11869e-15
  7945.1000 4.50453e-14 8.46449e-15
  7947.5200 4.28281e-14 7.92207e-15
  7949.9400 4.71888e-14 8.92894e-15
  7952.3600 4.43639e-14 8.35605e-15
  7954.7800 4.42366e-14 8.16372e-15
  7957.2100 4.99320e-14 9.22687e-15
  7959.6300 4.74348e-14 8.47552e-15
  7962.0500 5.25459e-14 9.21209e-15
  7964.4700 4.50632e-14 7.91627e-15
  7966.9000 4.54126e-14 8.13288e-15
  7969.3200 4.45281e-14 8.02611e-15
  7971.7400 4.15464e-14 7.28755e-15
  7974.1600 4.16987e-14 7.15402e-15
  7976.5800 4.49008e-14 8.27677e-15
  7979.0100 4.27956e-14 7.84390e-15
  7981.4300 4.57622e-14 7.98116e-15
  7983.8500 4.28501e-14 7.48803e-15
  7986.2700 4.48387e-14 7.68315e-15
  7988.6900 4.13946e-14 7.20649e-15
  7991.1200 3.68904e-14 6.43640e-15
  7993.5400 3.92709e-14 6.71346e-15
  7995.9600 3.82761e-14 6.72580e-15
  7998.3800 3.67788e-14 6.46304e-15
  8000.8100 3.95247e-14 6.76026e-15
  8003.2300 4.36466e-14 7.33287e-15
  8005.6500 4.41207e-14 7.34607e-15
  8008.0700 4.22340e-14 7.12621e-15
  8010.4900 4.67847e-14 7.65877e-15
  8012.9200 4.54703e-14 7.37136e-15
  8015.3400 3.80021e-14 6.38933e-15
  8017.7600 3.89231e-14 6.42985e-15
  8020.1800 4.13908e-14 6.44160e-15
  8022.6000 3.87839e-14 6.10327e-15
  8025.0300 3.90987e-14 6.05580e-15
  8027.4500 3.78764e-14 5.90247e-15
  8029.8700 3.54296e-14 5.58044e-15
  8032.2900 3.79279e-14 5.80421e-15
  8034.7200 4.12382e-14 6.26462e-15
  8037.1400 3.67743e-14 5.73578e-15
  8039.5600 3.27028e-14 5.11237e-15
  8041.9800 3.61562e-14 5.37653e-15
  8044.4000 3.65005e-14 5.41057e-15
  8046.8300 3.85700e-14 5.69751e-15
  8049.2500 3.63719e-14 5.55439e-15
  8051.6700 3.83277e-14 5.72551e-15
  8054.0900 3.68245e-14 5.52685e-15
  8056.5200 3.63053e-14 5.48873e-15
  8058.9400 3.64401e-14 5.36056e-15
  8061.3600 3.64427e-14 5.33199e-15
  8063.7800 3.66147e-14 5.36843e-15
  8066.2000 3.76557e-14 5.32415e-15
  8068.6300 3.62556e-14 5.22216e-15
  8071.0500 3.56870e-14 5.13724e-15
  8073.4700 3.36883e-14 4.84544e-15
  8075.8900 3.37332e-14 4.74646e-15
  8078.3100 3.12182e-14 4.45839e-15
  8080.7400 3.27600e-14 4.61612e-15
  8083.1600 3.13461e-14 4.57310e-15
  8085.5800 3.27932e-14 4.64734e-15
  8088.0000 3.00955e-14 4.41998e-15
  8090.4300 3.11308e-14 4.47044e-15
  8092.8500 2.95841e-14 4.37951e-15
  8095.2700 3.07733e-14 4.47668e-15
  8097.6900 3.00128e-14 4.42313e-15
  8100.1100 2.97550e-14 4.32690e-15
  8102.5400 2.90513e-14 4.25613e-15
  8104.9600 2.85256e-14 4.20095e-15
  8107.3800 2.82927e-14 4.08887e-15
  8109.8000 2.72878e-14 3.96598e-15
  8112.2200 2.63893e-14 3.89487e-15
  8114.6500 2.56634e-14 3.83351e-15
  8117.0700 2.23839e-14 3.48553e-15
  8119.4900 2.26155e-14 3.46141e-15
  8121.9100 2.18591e-14 3.34757e-15
  8124.3400 2.17370e-14 3.33626e-15
  8126.7600 1.88277e-14 3.14704e-15
  8129.1800 2.01095e-14 3.24560e-15
  8131.6000 1.67801e-14 2.93356e-15
  8134.0200 1.72846e-14 3.00324e-15
  8136.4500 1.68437e-14 2.90547e-15
  8138.8700 1.56470e-14 2.80428e-15
  8141.2900 1.42777e-14 2.65838e-15
  8143.7100 1.35009e-14 2.59391e-15
  8146.1400 1.30604e-14 2.51702e-15
  8148.5600 1.36845e-14 2.51214e-15
  8150.9800 1.20796e-14 2.41039e-15
  8153.4000 1.22751e-14 2.47566e-15
  8155.8200 1.07500e-14 2.32063e-15
  8158.2500 9.90219e-15 2.14102e-15
  8160.6700 1.20098e-14 2.35685e-15
  8163.0900 9.73507e-15 2.14858e-15
  8165.5100 9.13840e-15 2.06247e-15
  8167.9400 8.90717e-15 2.04923e-15
  8170.3600 8.02428e-15 1.94914e-15
  8172.7800 8.66011e-15 2.03494e-15
  8175.2000 7.53210e-15 1.92343e-15
  8177.6200 7.00985e-15 1.88090e-15
  8180.0500 7.35714e-15 1.91238e-15
  8182.4700 7.16800e-15 1.84467e-15
  8184.8900 7.48256e-15 1.81944e-15
  8187.3100 6.83582e-15 1.73362e-15
  8189.7300 6.69961e-15 1.74095e-15
  8192.1600 6.94000e-15 1.73481e-15
  8194.5800 5.92970e-15 1.57198e-15
  8197.0000 6.30155e-15 1.58592e-15
  8199.4200 5.31014e-15 1.45664e-15
  8201.8500 5.25953e-15 1.42503e-15
  8204.2700 5.98257e-15 1.43514e-15
  8206.6900 6.04853e-15 1.50788e-15
  8209.1100 5.52703e-15 1.42820e-15
  8211.5300 6.30693e-15 1.49122e-15
  8213.9600 6.97646e-15 1.55803e-15
  8216.3800 6.82991e-15 1.51710e-15
  8218.8000 5.64868e-15 1.36306e-15
  8221.2200 5.49384e-15 1.32973e-15
  8223.6500 6.06525e-15 1.38057e-15
  8226.0700 6.06351e-15 1.39249e-15
  8228.4900 5.26329e-15 1.30794e-15
  8230.9100 6.64163e-15 1.48728e-15
  8233.3300 6.74047e-15 1.46954e-15
  8235.7600 6.57858e-15 1.39982e-15
  8238.1800 6.70922e-15 1.39189e-15
  8240.6000 6.77980e-15 1.38735e-15
  8243.0200 6.74053e-15 1.33263e-15
  8245.4400 6.72613e-15 1.32383e-15
  8247.8700 6.98707e-15 1.32123e-15
  8250.2900 7.04094e-15 1.32466e-15
  8252.7100 7.13876e-15 1.34476e-15
  8255.1300 7.01154e-15 1.36188e-15
  8257.5600 7.36533e-15 1.35751e-15
  8259.9800 6.90090e-15 1.32118e-15
  8262.4000 7.07560e-15 1.32577e-15
  8264.8200 7.49015e-15 1.33583e-15
  8267.2400 8.01403e-15 1.37665e-15
  8269.6700 7.38501e-15 1.32094e-15
  8272.0900 7.36264e-15 1.32338e-15
  8274.5100 7.72022e-15 1.37321e-15
  8276.9300 7.58401e-15 1.34209e-15
  8279.3600 7.69050e-15 1.36447e-15
  8281.7800 7.88432e-15 1.34841e-15
  8284.2000 8.23480e-15 1.36634e-15
  8286.6200 7.45264e-15 1.29507e-15
  8289.0400 7.82241e-15 1.32483e-15
  8291.4700 7.94027e-15 1.32779e-15
  8293.8900 8.65399e-15 1.35645e-15
  8296.3100 8.11456e-15 1.29394e-15
  8298.7300 7.85227e-15 1.28606e-15
  8301.1500 8.29322e-15 1.31065e-15
  8303.5800 8.42670e-15 1.30927e-15
  8306.0000 8.00831e-15 1.28773e-15
  8308.4200 8.77251e-15 1.33857e-15
  8310.8400 8.53669e-15 1.29400e-15
  8313.2700 8.25140e-15 1.27925e-15
  8315.6900 8.31480e-15 1.28001e-15
  8318.1100 9.09289e-15 1.32425e-15
  8320.5300 9.78519e-15 1.36655e-15
  8322.9500 9.08661e-15 1.34432e-15
  8325.3800 9.50249e-15 1.35505e-15
  8327.8000 1.04106e-14 1.39455e-15
  8330.2200 1.08765e-14 1.39215e-15
  8332.6400 1.02079e-14 1.36111e-15
  8335.0700 1.01807e-14 1.37983e-15
  8337.4900 9.92371e-15 1.36914e-15
  8339.9100 1.05250e-14 1.38610e-15
  8342.3300 1.07066e-14 1.38044e-15
  8344.7500 1.09965e-14 1.39195e-15
  8347.1800 1.13691e-14 1.39802e-15
  8349.6000 1.13573e-14 1.35767e-15
  8352.0200 1.16950e-14 1.39226e-15
  8354.4400 1.21998e-14 1.44432e-15
  8356.8600 1.23573e-14 1.45323e-15
  8359.2900 1.23926e-14 1.45066e-15
  8361.7100 1.32281e-14 1.48780e-15
  8364.1300 1.30119e-14 1.47453e-15
  8366.5500 1.32944e-14 1.50197e-15
  8368.9800 1.35026e-14 1.48259e-15
  8371.4000 1.32512e-14 1.45482e-15
  8373.8200 1.37340e-14 1.48004e-15
  8376.2400 1.44356e-14 1.51928e-15
  8378.6600 1.40435e-14 1.49980e-15
  8381.0900 1.49317e-14 1.54435e-15
  8383.5100 1.49725e-14 1.54630e-15
  8385.9300 1.51235e-14 1.53839e-15
  8388.3500 1.58916e-14 1.57694e-15
  8390.7700 1.61895e-14 1.61857e-15
  8393.2000 1.66764e-14 1.61912e-15
  8395.6200 1.71645e-14 1.64662e-15
  8398.0400 1.85282e-14 1.70467e-15
  8400.4600 1.95160e-14 1.76249e-15
  8402.8900 2.00410e-14 1.77409e-15
  8405.3100 2.00191e-14 1.77550e-15
  8407.7300 2.02961e-14 1.77340e-15
  8410.1500 2.06676e-14 1.78592e-15
  8412.5700 2.18961e-14 1.84561e-15
  8415.0000 2.26143e-14 1.87456e-15
  8417.4200 2.36926e-14 1.91519e-15
  8419.8400 2.47849e-14 1.95884e-15
  8422.2600 2.56502e-14 1.99965e-15
  8424.6900 2.74152e-14 2.10092e-15
  8427.1100 2.91654e-14 2.17841e-15
  8429.5300 3.03658e-14 2.23326e-15
  8431.9500 3.14526e-14 2.26258e-15
  8434.3700 3.31718e-14 2.35126e-15
  8436.8000 3.45790e-14 2.40285e-15
  8439.2200 3.57260e-14 2.44677e-15
  8441.6400 3.68303e-14 2.48829e-15
  8444.0600 3.82152e-14 2.56337e-15
  8446.4800 3.88941e-14 2.57007e-15
  8448.9100 3.98523e-14 2.62329e-15
  8451.3300 4.01035e-14 2.57828e-15
  8453.7500 4.23005e-14 2.70032e-15
  8456.1700 4.30196e-14 2.70250e-15
  8458.6000 4.35358e-14 2.78331e-15
  8461.0200 4.35856e-14 2.71099e-15
  8463.4400 4.45797e-14 2.77953e-15
  8465.8600 4.55985e-14 2.83086e-15
  8468.2800 4.65876e-14 2.85421e-15
  8470.7100 4.68285e-14 2.82964e-15
  8473.1300 4.72873e-14 2.85091e-15
  8475.5500 4.70159e-14 2.80746e-15
  8477.9700 4.68264e-14 2.79623e-15
  8480.4000 4.68301e-14 2.78946e-15
  8482.8200 4.80025e-14 2.84999e-15
  8485.2400 4.85476e-14 2.86321e-15
  8487.6600 5.02222e-14 2.95363e-15
  8490.0800 5.08593e-14 2.96386e-15
  8492.5100 5.15475e-14 3.00725e-15
  8494.9300 5.22409e-14 3.00962e-15
  8497.3500 5.30814e-14 3.06842e-15
  8499.7700 5.29200e-14 3.03625e-15
  8502.1900 5.26108e-14 3.00671e-15
  8504.6200 5.26357e-14 2.99275e-15
  8507.0400 5.25920e-14 2.98614e-15
  8509.4600 5.25695e-14 2.98155e-15
  8511.8800 5.20657e-14 2.94440e-15
  8514.3100 5.28769e-14 2.97895e-15
  8516.7300 5.38301e-14 3.01457e-15
  8519.1500 5.34195e-14 2.97548e-15
  8521.5700 5.41340e-14 3.02338e-15
  8523.9900 5.54603e-14 3.07126e-15
  8526.4200 5.64770e-14 3.13377e-15
  8528.8400 5.58613e-14 3.07453e-15
  8531.2600 5.61892e-14 3.11280e-15
  8533.6800 5.65636e-14 3.10344e-15
  8536.1100 5.73602e-14 3.15475e-15
  8538.5300 5.81739e-14 3.18052e-15
  8540.9500 5.81925e-14 3.16360e-15
  8542.1300 5.64767e-14 3.70152e-15
  8544.8900 5.61448e-14 3.41046e-15
  8547.6500 5.77028e-14 3.24629e-15
  8550.4100 5.87875e-14 3.18314e-15
  8553.1700 5.81771e-14 3.09629e-15
  8555.9300 5.73020e-14 3.12410e-15
  8558.7000 5.78499e-14 3.31470e-15
  8561.4600 5.89023e-14 3.68047e-15
  8564.2200 5.94393e-14 3.56161e-15
  8566.9800 5.91378e-14 3.26589e-15
  8569.7400 5.99004e-14 3.16464e-15
  8572.5000 6.01694e-14 3.11173e-15
  8575.2600 5.96854e-14 3.16564e-15
  8578.0200 6.02515e-14 3.37107e-15
  8580.7900 5.97540e-14 3.58333e-15
  8583.5500 5.79935e-14 3.42987e-15
  8586.3100 5.99522e-14 3.31086e-15
  8589.0700 6.15133e-14 3.22431e-15
  8591.8300 6.24941e-14 3.18906e-15
  8594.5900 6.17974e-14 3.19490e-15
  8597.3500 6.03630e-14 3.29856e-15
  8600.1200 5.90015e-14 3.48540e-15
  8602.8800 6.03534e-14 3.55495e-15
  8605.6400 6.11300e-14 3.31707e-15
  8608.4000 6.19513e-14 3.16923e-15
  8611.1600 6.05882e-14 3.03235e-15
  8613.9200 6.07110e-14 3.09020e-15
  8616.6800 6.16077e-14 3.26088e-15
  8619.4400 6.22423e-14 3.53151e-15
  8622.2100 6.22296e-14 3.62623e-15
  8624.9700 6.23513e-14 3.37486e-15
  8627.7300 6.27670e-14 3.17843e-15
  8630.4900 6.24361e-14 3.05464e-15
  8633.2500 6.19313e-14 3.05507e-15
  8636.0100 6.19876e-14 3.17504e-15
  8638.7700 6.17410e-14 3.38162e-15
  8641.5300 6.07535e-14 3.45969e-15
  8644.3000 6.04530e-14 3.19703e-15
  8647.0600 6.11529e-14 3.06269e-15
  8649.8200 6.21213e-14 2.97843e-15
  8652.5800 6.22429e-14 2.99430e-15
  8655.3400 6.35625e-14 3.17352e-15
  8658.1000 6.45774e-14 3.40377e-15
  8660.8600 6.55107e-14 3.67537e-15
  8663.6300 6.50568e-14 3.36626e-15
  8666.3900 6.68576e-14 3.24366e-15
  8669.1500 6.81719e-14 3.19748e-15
  8671.9100 6.88156e-14 3.18976e-15
  8674.6700 6.86128e-14 3.26299e-15
  8677.4300 6.96015e-14 3.50640e-15
  8680.1900 6.79901e-14 3.62542e-15
  8682.9500 6.95407e-14 3.51493e-15
  8685.7200 6.96230e-14 3.30401e-15
  8688.4800 7.12843e-14 3.25147e-15
  8691.2400 7.12073e-14 3.20195e-15
  8694.0000 7.17510e-14 3.32401e-15
  8696.7600 7.10047e-14 3.43695e-15
  8699.5200 7.27401e-14 3.75386e-15
  8702.2800 7.06697e-14 3.46315e-15
  8705.0400 7.11438e-14 3.30853e-15
  8707.8100 7.08245e-14 3.13474e-15
  8710.5700 7.34965e-14 3.23649e-15
  8713.3300 7.49787e-14 3.34059e-15
  8716.0900 7.69580e-14 3.57695e-15
  8718.8500 7.52164e-14 3.67945e-15
  8721.6100 7.67354e-14 3.71454e-15
  8724.3700 7.64898e-14 3.47203e-15
  8727.1400 7.76243e-14 3.38312e-15
  8729.9000 7.83153e-14 3.34009e-15
  8732.6600 7.90956e-14 3.41611e-15
  8735.4200 7.90136e-14 3.55733e-15
  8738.1800 7.95788e-14 3.78697e-15
  8740.9400 7.92284e-14 3.77901e-15
  8743.7000 7.98722e-14 3.57528e-15
  8746.4600 7.75962e-14 3.30270e-15
  8749.2300 7.79609e-14 3.25921e-15
  8751.9900 7.76767e-14 3.27847e-15
  8754.7500 7.85449e-14 3.42841e-15
  8757.5100 7.70905e-14 3.54747e-15
  8760.2700 7.89576e-14 3.67644e-15
  8763.0300 7.87650e-14 3.45139e-15
  8765.7900 7.91947e-14 3.30053e-15
  8768.5500 8.02645e-14 3.27219e-15
  8771.3200 8.10906e-14 3.30166e-15
  8774.0800 8.14694e-14 3.42829e-15
  8776.8400 8.27804e-14 3.64863e-15
  8779.6000 8.07346e-14 3.68607e-15
  8782.3600 8.01131e-14 3.44533e-15
  8785.1200 8.13455e-14 3.35362e-15
  8787.8800 8.13238e-14 3.25250e-15
  8790.6500 8.08780e-14 3.22321e-15
  8793.4100 8.01445e-14 3.29111e-15
  8796.1700 8.07334e-14 3.47715e-15
  8798.9300 8.07010e-14 3.64734e-15
  8801.6900 7.94400e-14 3.39808e-15
  8804.4500 7.97882e-14 3.26341e-15
  8807.2100 7.95795e-14 3.16111e-15
  8809.9700 7.79210e-14 3.08414e-15
  8812.7400 7.80577e-14 3.18989e-15
  8815.5000 7.83134e-14 3.34670e-15
  8818.2600 7.82561e-14 3.50879e-15
  8821.0200 7.67536e-14 3.27230e-15
  8823.7800 7.76394e-14 3.16522e-15
  8826.5400 7.72991e-14 3.06229e-15
  8829.3000 7.63114e-14 2.99382e-15
  8832.0600 7.49966e-14 3.01198e-15
  8834.8300 7.48610e-14 3.13855e-15
  8837.5900 7.39746e-14 3.24741e-15
  8840.3500 7.41315e-14 3.17127e-15
  8843.1100 7.38922e-14 2.98066e-15
  8845.8700 7.33184e-14 2.88388e-15
  8848.6300 7.27294e-14 2.82931e-15
  8851.3900 7.23518e-14 2.87622e-15
  8854.1600 7.22043e-14 3.00277e-15
  8856.9200 7.29872e-14 3.18570e-15
  8859.6800 7.21308e-14 3.09099e-15
  8862.4400 7.19842e-14 2.95036e-15
  8865.2000 7.18676e-14 2.84934e-15
  8867.9600 7.29348e-14 2.83746e-15
  8870.7200 7.15960e-14 2.83135e-15
  8873.4800 7.09526e-14 2.89345e-15
  8876.2500 6.99218e-14 2.98958e-15
  8879.0100 7.06257e-14 3.04425e-15
  8881.7700 7.14212e-14 2.92804e-15
  8884.5300 7.16137e-14 2.82494e-15
  8887.2900 7.09548e-14 2.75169e-15
  8890.0500 7.25811e-14 2.85077e-15
  8892.8100 7.21470e-14 2.92205e-15
  8895.5700 7.20745e-14 3.05718e-15
  8898.3400 7.07256e-14 3.01438e-15
  8901.1000 7.01603e-14 2.85799e-15
  8903.8600 6.93258e-14 2.71964e-15
  8906.6200 6.86305e-14 2.66027e-15
  8909.3800 6.79200e-14 2.62946e-15
  8912.1400 6.73783e-14 2.72795e-15
  8914.9000 6.74285e-14 2.83061e-15
  8917.6700 6.71271e-14 2.90865e-15
  8920.4300 6.61955e-14 2.72619e-15
  8923.1900 6.50874e-14 2.57414e-15
  8925.9500 6.43671e-14 2.50402e-15
  8928.7100 6.35890e-14 2.49568e-15
  8931.4700 6.34685e-14 2.56767e-15
  8934.2300 6.29685e-14 2.65739e-15
  8936.9900 6.26118e-14 2.75207e-15
  8939.7600 6.17895e-14 2.59519e-15
  8942.5200 6.09484e-14 2.45359e-15
  8945.2800 6.01756e-14 2.38872e-15
  8948.0400 5.94622e-14 2.36351e-15
  8950.8000 5.88983e-14 2.41136e-15
  8953.5600 5.81386e-14 2.47567e-15
  8956.3200 5.84028e-14 2.61471e-15
  8959.0800 5.76952e-14 2.49446e-15
  8961.8500 5.65322e-14 2.35732e-15
  8964.6100 5.62251e-14 2.30102e-15
  8967.3700 5.54015e-14 2.24917e-15
  8970.1300 5.51417e-14 2.30404e-15
  8972.8900 5.46067e-14 2.35288e-15
  8975.6500 5.40816e-14 2.44884e-15
  8978.4100 5.34006e-14 2.33862e-15
  8981.1800 5.25164e-14 2.20666e-15
  8983.9400 5.19167e-14 2.15569e-15
  8986.7000 5.04436e-14 2.11527e-15
  8989.4600 4.97410e-14 2.13223e-15
  8992.2200 5.02768e-14 2.21077e-15
  8994.9800 5.05203e-14 2.29656e-15
  8997.7400 5.03564e-14 2.24930e-15
  9000.5000 4.91877e-14 2.11585e-15
  9003.2700 4.83883e-14 2.03513e-15
  9006.0300 4.84067e-14 2.01269e-15
  9008.7900 4.87441e-14 2.04992e-15
  9011.5500 4.82109e-14 2.10285e-15
  9014.3100 4.81707e-14 2.19700e-15
  9017.0700 4.82787e-14 2.19679e-15
  9019.8300 4.83406e-14 2.11451e-15
  9022.6000 4.79694e-14 2.05999e-15
  9025.3600 4.77400e-14 1.99817e-15
  9028.1200 4.69300e-14 1.94185e-15
  9030.8800 4.66292e-14 1.99616e-15
  9033.6400 4.84790e-14 2.14211e-15
  9036.4000 4.91721e-14 2.20103e-15
  9039.1600 4.91004e-14 2.10489e-15
  9041.9200 4.93426e-14 2.04626e-15
  9044.6900 4.94141e-14 2.01247e-15
  9047.4500 4.88986e-14 1.99175e-15
  9050.2100 4.84761e-14 2.03732e-15
  9052.9700 4.84915e-14 2.12178e-15
  9055.7300 4.90754e-14 2.19243e-15
  9058.4900 4.85375e-14 2.08669e-15
  9061.2500 4.81504e-14 2.00379e-15
  9064.0100 4.87282e-14 2.01404e-15
  9066.7800 4.89939e-14 2.02183e-15
  9069.5400 4.94496e-14 2.10324e-15
  9072.3000 4.93390e-14 2.17199e-15
  9075.0600 4.89749e-14 2.23810e-15
  9077.8200 4.90969e-14 2.14562e-15
  9080.5800 4.95578e-14 2.08757e-15
  9083.3400 5.01499e-14 2.07448e-15
  9086.1100 5.07187e-14 2.06381e-15
  9088.8700 5.12573e-14 2.13181e-15
  9091.6300 5.09648e-14 2.18909e-15
  9094.3900 5.17284e-14 2.31913e-15
  9097.1500 5.18351e-14 2.23759e-15
  9099.9100 5.17797e-14 2.15538e-15
  9102.6700 5.18143e-14 2.11559e-15
  9105.4300 5.20866e-14 2.09484e-15
  9108.2000 5.22516e-14 2.13501e-15
  9110.9600 5.36337e-14 2.25706e-15
  9113.7200 5.42241e-14 2.36512e-15
  9116.4800 5.37338e-14 2.29360e-15
  9119.2400 5.40122e-14 2.22638e-15
  9122.0000 5.49844e-14 2.20755e-15
  9124.7600 5.52545e-14 2.18664e-15
  9127.5300 5.51791e-14 2.23618e-15
  9130.2900 5.53374e-14 2.31720e-15
  9133.0500 5.57292e-14 2.42849e-15
  9135.8100 5.58444e-14 2.40099e-15
  9138.5700 5.69145e-14 2.32777e-15
  9141.3300 5.86396e-14 2.29953e-15
  9144.0900 5.98095e-14 2.31350e-15
  9146.8500 5.96640e-14 2.33860e-15
  9149.6200 5.98106e-14 2.44060e-15
  9152.3800 5.92820e-14 2.52177e-15
  9155.1400 6.01572e-14 2.57193e-15
  9157.9000 6.16847e-14 2.50106e-15
  9160.6600 6.38324e-14 2.47290e-15
  9163.4200 6.44998e-14 2.44873e-15
  9166.1800 6.48960e-14 2.48952e-15
  9168.9400 6.54145e-14 2.58718e-15
  9171.7100 6.56923e-14 2.69510e-15
  9174.4700 6.65569e-14 2.77751e-15
  9177.2300 6.83186e-14 2.73148e-15
  9179.9900 6.93382e-14 2.63929e-15
  9182.7500 7.02527e-14 2.63487e-15
  9185.5100 7.11014e-14 2.64655e-15
  9188.2700 7.23023e-14 2.76826e-15
  9191.0400 7.28425e-14 2.85998e-15
  9193.8000 7.38793e-14 2.99554e-15
  9196.5600 7.48346e-14 2.89078e-15
  9199.3200 7.58039e-14 2.81833e-15
  9202.0800 7.67716e-14 2.79186e-15
  9204.8400 7.76253e-14 2.82715e-15
  9207.6000 7.85251e-14 2.92243e-15
  9210.3600 7.90081e-14 3.05867e-15
  9213.1300 7.97274e-14 3.19184e-15
  9215.8900 8.04561e-14 3.10563e-15
  9218.6500 8.12726e-14 3.00898e-15
  9221.4100 8.32073e-14 3.03339e-15
  9224.1700 8.42733e-14 3.05785e-15
  9226.9300 8.62040e-14 3.18385e-15
  9229.6900 8.64388e-14 3.28054e-15
  9232.4500 8.78016e-14 3.52065e-15
  9235.2200 8.93321e-14 3.44781e-15
  9237.9800 8.99895e-14 3.31152e-15
  9240.7400 8.87957e-14 3.20844e-15
  9243.5000 8.63819e-14 3.09609e-15
  9246.2600 8.95090e-14 3.29392e-15
  9249.0200 9.29371e-14 3.52281e-15
  9251.7800 9.47901e-14 3.72475e-15
  9254.5400 9.53018e-14 3.64347e-15
  9257.3100 9.53207e-14 3.50694e-15
  9260.0700 9.53950e-14 3.43219e-15
  9262.8300 9.51768e-14 3.39062e-15
  9265.5900 9.58681e-14 3.46184e-15
  9268.3500 9.58468e-14 3.54933e-15
  9271.1100 9.57353e-14 3.69617e-15
  9273.8700 9.41663e-14 3.61193e-15
  9276.6400 9.28523e-14 3.44827e-15
  9279.4000 9.24412e-14 3.37963e-15
  9282.1600 9.31097e-14 3.35151e-15
  9284.9200 9.40279e-14 3.43557e-15
  9287.6800 9.47375e-14 3.57599e-15
  9290.4400 9.56768e-14 3.75373e-15
  9293.2000 9.61474e-14 3.78380e-15
  9295.9600 9.51912e-14 3.62551e-15
  9298.7300 9.46390e-14 3.51603e-15
  9301.4900 9.46407e-14 3.47526e-15
  9304.2500 9.52920e-14 3.54107e-15
  9307.0100 9.48725e-14 3.66012e-15
  9309.7700 9.59530e-14 3.85251e-15
  9312.5300 9.50007e-14 3.88521e-15
  9315.2900 9.49144e-14 3.77972e-15
  9318.0500 9.47408e-14 3.68949e-15
  9320.8200 9.51227e-14 3.66444e-15
  9323.5800 9.44403e-14 3.65824e-15
  9326.3400 9.55131e-14 3.77643e-15
  9329.1000 9.72650e-14 3.97026e-15
  9331.8600 9.74176e-14 4.08265e-15
  9334.6200 9.65427e-14 3.96432e-15
  9337.3800 9.58168e-14 3.86342e-15
  9340.1500 9.31857e-14 3.77206e-15
  9342.9100 9.15695e-14 3.75016e-15
  9345.6700 9.46404e-14 3.83694e-15
  9348.4300 1.00274e-13 4.11566e-15
  9351.1900 1.00499e-13 4.20491e-15
  9353.9500 9.69848e-14 4.00690e-15
  9356.7100 9.43777e-14 3.85839e-15
  9359.4700 9.70859e-14 3.81054e-15
  9362.2400 9.95659e-14 3.83831e-15
  9365.0000 9.90880e-14 3.89720e-15
  9367.7600 9.58496e-14 3.94881e-15
  9370.5200 9.42338e-14 4.04772e-15
  9373.2800 9.61858e-14 4.00167e-15
  9376.0400 9.67390e-14 3.87029e-15
  9378.8000 9.44195e-14 3.70250e-15
  9381.5600 9.38706e-14 3.68122e-15
  9384.3300 9.53975e-14 3.74331e-15
  9387.0900 9.70913e-14 3.84243e-15
  9389.8500 9.80212e-14 3.94087e-15
  9392.6100 9.91242e-14 3.86561e-15
  9395.3700 9.81320e-14 3.73213e-15
  9398.1300 9.68659e-14 3.62029e-15
  9400.8900 9.55796e-14 3.59842e-15
  9403.6600 9.60563e-14 3.67662e-15
  9406.4200 9.51422e-14 3.77520e-15
  9409.1800 9.46741e-14 3.88790e-15
  9411.9400 9.52488e-14 3.89829e-15
  9414.7000 9.53063e-14 3.73734e-15
  9417.4600 9.37881e-14 3.58078e-15
  9420.2200 9.42748e-14 3.57733e-15
  9422.9800 9.45057e-14 3.66043e-15
  9425.7500 9.27445e-14 3.77186e-15
  9428.5100 9.05171e-14 3.84304e-15
  9431.2700 9.24808e-14 3.91149e-15
  9434.0300 9.54982e-14 3.87139e-15
  9436.7900 9.52818e-14 3.72345e-15
  9439.5500 9.03341e-14 3.59689e-15
  9442.3100 8.85060e-14 3.62281e-15
  9445.0800 9.03772e-14 3.68275e-15
  9447.8400 9.36059e-14 3.85653e-15
  9450.6000 9.36360e-14 3.84647e-15
  9453.3600 9.17874e-14 3.66797e-15
  9456.1200 8.95450e-14 3.58147e-15
  9458.8800 8.89880e-14 3.58712e-15
  9461.6400 8.95939e-14 3.60353e-15
  9464.4000 9.16217e-14 3.71800e-15
  9467.1700 9.18505e-14 3.83243e-15
  9469.9300 9.17580e-14 3.83503e-15
  9472.6900 9.12154e-14 3.73407e-15
  9475.4500 9.17009e-14 3.62708e-15
  9478.2100 9.02952e-14 3.57153e-15
  9480.9700 8.81867e-14 3.55532e-15
  9483.7300 8.92400e-14 4.70422e-15
  9486.4900 9.23049e-14 4.83939e-15
  9489.2600 9.27199e-14 4.83000e-15
  9492.0200 9.30474e-14 4.78460e-15
  9494.7800 9.03788e-14 4.74823e-15
  9497.5400 8.85576e-14 4.72393e-15
  9500.3000 8.66749e-14 4.64560e-15
  9503.0600 8.79208e-14 4.56889e-15
  9505.8200 8.90884e-14 4.57206e-15
  9508.5900 9.10340e-14 4.66713e-15
  9511.3500 9.10185e-14 4.64778e-15
  9514.1100 9.08253e-14 4.66508e-15
  9516.8700 8.81603e-14 4.64698e-15
  9519.6300 8.67343e-14 4.59883e-15
  9522.3900 8.45884e-14 4.55460e-15
  9525.1500 8.49108e-14 4.49743e-15
  9527.9100 8.49807e-14 4.50144e-15
  9530.6800 8.61162e-14 4.48078e-15
  9533.4400 8.58997e-14 4.47738e-15
  9536.2000 8.68723e-14 4.44496e-15
  9538.9600 8.66990e-14 4.49771e-15
  9541.7200 8.69144e-14 4.52069e-15
  9544.4800 8.63079e-14 4.53157e-15
  9547.2400 8.87277e-14 4.58851e-15
  9550.0100 9.03552e-14 4.70915e-15
  9552.7700 9.14754e-14 4.72223e-15
  9555.5300 8.78239e-14 4.63584e-15
  9558.2900 8.60808e-14 4.43310e-15
  9561.0500 8.57007e-14 4.44068e-15
  9563.8100 8.74101e-14 4.53488e-15
  9566.5700 8.75682e-14 4.62486e-15
  9569.3300 8.81433e-14 4.59424e-15
  9572.1000 8.84944e-14 4.54940e-15
  9574.8600 8.96588e-14 4.51298e-15
  9577.6200 8.81304e-14 4.53583e-15
  9580.3800 8.68022e-14 4.42724e-15
  9583.1400 8.53560e-14 4.40981e-15
  9585.9000 8.50741e-14 4.34479e-15
  9588.6600 8.29821e-14 4.29179e-15
  9591.4200 8.20829e-14 4.24336e-15
  9594.1900 8.13569e-14 4.26746e-15
  9596.9500 8.20051e-14 4.20651e-15
  9599.7100 8.25855e-14 4.20705e-15
  9602.4700 8.27253e-14 4.21155e-15
  9605.2300 8.18540e-14 4.18058e-15
  9607.9900 8.24733e-14 4.23141e-15
  9610.7500 8.19254e-14 4.18333e-15
  9613.5200 8.21130e-14 4.12789e-15
  9616.2800 8.14926e-14 4.12100e-15
  9619.0400 8.10452e-14 4.10210e-15
  9621.8000 7.96051e-14 4.08219e-15
  9624.5600 7.96107e-14 4.08560e-15
  9627.3200 7.99100e-14 4.11142e-15
  9630.0800 8.06573e-14 4.10994e-15
  9632.8400 7.90977e-14 4.00666e-15
  9635.6100 7.82529e-14 3.95234e-15
  9638.3700 7.75689e-14 3.99421e-15
  9641.1300 7.75615e-14 3.97750e-15
  9643.8900 7.62887e-14 3.93573e-15
  9646.6500 7.63724e-14 3.89437e-15
  9649.4100 7.59713e-14 3.87498e-15
  9652.1700 7.59017e-14 3.82490e-15
  9654.9300 7.53089e-14 3.81908e-15
  9656.8900 7.43226e-14 3.94821e-15
  9660.1200 7.44763e-14 3.78462e-15
  9663.3500 7.33112e-14 3.66912e-15
  9666.5800 7.10616e-14 3.73475e-15
  9669.8100 7.06346e-14 3.95916e-15
  9673.0400 7.09482e-14 4.09274e-15
  9676.2700 7.04353e-14 3.72160e-15
  9679.5000 6.83410e-14 3.37892e-15
  9682.7300 6.93606e-14 3.40863e-15
  9685.9600 6.92806e-14 3.56101e-15
  9689.1900 6.87016e-14 3.85863e-15
  9692.4200 6.83786e-14 3.84767e-15
  9695.6500 6.84389e-14 3.53851e-15
  9698.8800 6.72017e-14 3.31985e-15
  9702.1100 6.65688e-14 3.23994e-15
  9705.3400 6.49082e-14 3.36331e-15
  9708.5700 6.60509e-14 3.67307e-15
  9711.8000 6.56355e-14 3.61093e-15
  9715.0300 6.49976e-14 3.29841e-15
  9718.2600 6.40506e-14 3.08923e-15
  9721.4900 6.50496e-14 3.19286e-15
  9724.7200 6.51719e-14 3.37416e-15
  9727.9500 6.47967e-14 3.62059e-15
  9731.1800 6.39875e-14 3.47594e-15
  9734.4100 6.22804e-14 3.11113e-15
  9737.6400 6.13373e-14 2.96884e-15
  9740.8700 6.11372e-14 2.97398e-15
  9744.1000 6.09156e-14 3.14034e-15
  9747.3300 6.24297e-14 3.46488e-15
  9750.5600 6.21302e-14 3.31753e-15
  9753.7900 6.07540e-14 2.99257e-15
  9757.0200 6.03200e-14 2.88117e-15
  9760.2500 6.07562e-14 2.95286e-15
  9763.4800 6.19642e-14 3.20264e-15
  9766.7100 6.19432e-14 3.41307e-15
  9769.9400 6.14673e-14 3.18545e-15
  9773.1600 6.39478e-14 3.04128e-15
  9776.3900 6.29117e-14 2.91368e-15
  9779.6200 6.39450e-14 2.96299e-15
  9782.8500 6.36111e-14 3.13641e-15
  9786.0800 6.43364e-14 3.39470e-15
  9789.3100 6.28281e-14 3.07790e-15
  9792.5400 6.35774e-14 2.91844e-15
  9795.7700 6.48910e-14 2.92817e-15
  9799.0000 6.59592e-14 3.02139e-15
  9802.2300 6.49373e-14 3.13276e-15
  9805.4600 6.50714e-14 3.31192e-15
  9808.6900 6.51184e-14 3.08582e-15
  9811.9200 6.59503e-14 2.93069e-15
  9815.1500 6.74064e-14 2.91464e-15
  9818.3800 6.77671e-14 3.01700e-15
  9821.6100 6.91836e-14 3.29929e-15
  9824.8400 6.93693e-14 3.43482e-15
  9828.0700 6.86648e-14 3.15148e-15
  9831.3000 6.81639e-14 2.97132e-15
  9834.5300 6.88750e-14 2.96269e-15
  9837.7600 6.94582e-14 3.05609e-15
  9840.9900 6.98441e-14 3.28702e-15
  9844.2200 6.89622e-14 3.33640e-15
  9847.4500 6.95704e-14 3.14772e-15
  9850.6800 7.01669e-14 3.01498e-15
  9853.9100 6.93404e-14 2.92652e-15
  9857.1400 6.87293e-14 3.01457e-15
  9860.3700 6.87032e-14 3.19735e-15
  9863.6000 6.79672e-14 3.17952e-15
  9866.8300 6.82289e-14 3.01036e-15
  9870.0600 6.84362e-14 2.89747e-15
  9873.2900 6.90213e-14 2.92331e-15
  9876.5200 6.81206e-14 2.96560e-15
  9879.7500 6.88753e-14 3.18660e-15
  9882.9800 6.97008e-14 3.25026e-15
  9886.2100 6.98156e-14 3.03146e-15
  9889.4400 6.94208e-14 2.90545e-15
  9892.6700 6.94839e-14 2.90256e-15
  9895.9000 6.89957e-14 2.98802e-15
  9899.1300 6.90040e-14 3.20729e-15
  9902.3600 6.85834e-14 3.10701e-15
  9905.5900 6.82149e-14 2.88718e-15
  9908.8200 6.88472e-14 2.83054e-15
  9912.0500 6.96731e-14 2.87420e-15
  9915.2800 6.92021e-14 2.96633e-15
  9918.5100 6.89597e-14 3.14460e-15
  9921.7400 6.96854e-14 3.07908e-15
  9924.9700 7.06752e-14 2.94409e-15
  9928.2000 7.05855e-14 2.83723e-15
  9931.4300 7.14008e-14 2.91226e-15
  9934.6600 7.20750e-14 3.06913e-15
  9937.8900 7.18246e-14 3.22789e-15
  9941.1200 7.18598e-14 3.10682e-15
  9944.3500 7.27691e-14 2.96355e-15
  9947.5800 7.31929e-14 2.90476e-15
  9950.8100 7.36478e-14 2.94985e-15
  9954.0400 7.44161e-14 3.13897e-15
  9957.2700 7.51084e-14 3.38793e-15
  9960.5000 7.37755e-14 3.09245e-15
  9963.7300 7.45486e-14 2.96812e-15
  9966.9600 7.53600e-14 2.94047e-15
  9970.1900 7.50798e-14 3.00143e-15
  9973.4200 7.54942e-14 3.14215e-15
  9976.6500 7.56206e-14 3.32603e-15
  9979.8800 7.65354e-14 3.16222e-15
  9983.1100 7.74957e-14 3.04587e-15
  9986.3400 7.79336e-14 3.01753e-15
  9989.5700 7.73141e-14 3.03915e-15
  9992.8000 7.69597e-14 3.18137e-15
  9996.0300 7.75757e-14 3.35282e-15
  9999.2600 7.82261e-14 3.15569e-15
 10002.5000 7.88434e-14 3.06023e-15
 10005.7000 7.86462e-14 2.97662e-15
 10009.0000 7.75269e-14 3.04608e-15
 10012.2000 7.82716e-14 3.20617e-15
 10015.4000 7.66352e-14 3.22316e-15
 10018.6000 7.63100e-14 3.01435e-15
 10021.9000 7.76453e-14 2.96090e-15
 10025.1000 7.77101e-14 2.94888e-15
 10028.3000 7.67927e-14 2.97410e-15
 10031.6000 7.84268e-14 3.26385e-15
 10034.8000 7.86192e-14 3.32478e-15
 10038.0000 7.78252e-14 3.07660e-15
 10041.3000 7.78413e-14 2.99482e-15
 10044.5000 7.80719e-14 2.95830e-15
 10047.7000 7.88314e-14 3.11637e-15
 10050.9000 7.80907e-14 3.19733e-15
 10054.2000 7.76925e-14 3.21582e-15
 10057.4000 7.86736e-14 3.07618e-15
 10060.6000 7.77411e-14 2.93586e-15
 10063.9000 7.64510e-14 2.87778e-15
 10067.1000 7.65659e-14 2.98347e-15
 10070.3000 7.66309e-14 3.12466e-15
 10073.6000 7.65726e-14 3.11044e-15
 10076.8000 7.67008e-14 2.93905e-15
 10080.0000 7.60423e-14 2.83272e-15
 10083.2000 7.59091e-14 2.82474e-15
 10086.5000 7.53640e-14 2.91471e-15
 10089.7000 7.46152e-14 3.04376e-15
 10092.9000 7.33403e-14 2.90011e-15
 10096.2000 7.32253e-14 2.77080e-15
 10099.4000 7.27521e-14 2.68139e-15
 10102.6000 7.29273e-14 2.70858e-15
 10105.9000 7.22299e-14 2.78663e-15
 10109.1000 7.20580e-14 2.92361e-15
 10112.3000 7.21611e-14 2.83322e-15
 10115.5000 7.15034e-14 2.67192e-15
 10118.8000 7.14437e-14 2.62045e-15
 10122.0000 7.12134e-14 2.64469e-15
 10125.2000 7.07310e-14 2.73777e-15
 10128.5000 6.94267e-14 2.83693e-15
 10131.7000 6.95777e-14 2.71261e-15
 10134.9000 6.93024e-14 2.57353e-15
 10138.2000 6.87667e-14 2.51171e-15
 10141.4000 6.91623e-14 2.57119e-15
 10144.6000 6.90329e-14 2.67847e-15
 10147.8000 6.86855e-14 2.80530e-15
 10151.1000 6.84465e-14 2.62943e-15
 10154.3000 6.83410e-14 2.52050e-15
 10157.5000 6.81888e-14 2.47468e-15
 10160.8000 6.74108e-14 2.49389e-15
 10164.0000 6.72609e-14 2.60071e-15
 10167.2000 6.75033e-14 2.72532e-15
 10170.5000 6.74743e-14 2.56929e-15
 10173.7000 6.75451e-14 2.47272e-15
 10176.9000 6.70754e-14 2.41591e-15
 10180.1000 6.73140e-14 2.49626e-15
 10183.4000 6.69309e-14 2.58971e-15
 10186.6000 6.71239e-14 2.66883e-15
 10189.8000 6.73854e-14 2.54280e-15
 10193.1000 6.69475e-14 2.42907e-15
 10196.3000 6.66768e-14 2.40450e-15
 10199.5000 6.68198e-14 2.46483e-15
 10202.8000 6.75839e-14 2.60525e-15
 10206.0000 6.76525e-14 2.65654e-15
 10209.2000 6.73090e-14 2.50397e-15
 10212.4000 6.75090e-14 2.43887e-15
 10215.7000 6.73981e-14 2.40590e-15
 10218.9000 6.80109e-14 2.50189e-15
 10222.1000 6.78980e-14 2.63101e-15
 10225.4000 6.79173e-14 2.63505e-15
 10228.6000 6.76002e-14 2.48855e-15
 10231.8000 6.71604e-14 2.39377e-15
 10235.1000 6.75180e-14 2.41021e-15
 10238.3000 6.76911e-14 2.48591e-15
 10241.5000 6.78790e-14 2.60887e-15
 10244.7000 6.78505e-14 2.58608e-15
 10248.0000 6.79500e-14 2.47466e-15
 10251.2000 6.81016e-14 2.41740e-15
 10254.4000 6.76421e-14 2.39392e-15
 10257.7000 6.76761e-14 2.48474e-15
 10260.9000 6.76721e-14 2.59340e-15
 10264.1000 6.76889e-14 2.55622e-15
 10267.4000 6.79939e-14 2.44637e-15
 10270.6000 6.79598e-14 2.39205e-15
 10273.8000 6.76156e-14 2.38153e-15
 10277.0000 6.72969e-14 2.45746e-15
 10280.3000 6.74866e-14 2.60027e-15
 10283.5000 6.70325e-14 2.50164e-15
 10286.7000 6.66740e-14 2.38749e-15
 10290.0000 6.62605e-14 2.31255e-15
 10293.2000 6.59596e-14 2.33411e-15
 10296.4000 6.60889e-14 2.41547e-15
 10299.7000 6.60579e-14 2.53946e-15
 10302.9000 6.59612e-14 2.44020e-15
 10306.1000 6.63281e-14 2.34762e-15
 10309.3000 6.62282e-14 2.31091e-15
 10312.6000 6.66657e-14 2.36171e-15
 10315.8000 6.60794e-14 2.42826e-15
 10319.0000 6.61463e-14 2.54986e-15
 10322.3000 6.57858e-14 2.41084e-15
 10325.5000 6.55452e-14 2.31754e-15
 10328.7000 6.52913e-14 2.25780e-15
 10331.9000 6.52796e-14 2.30912e-15
 10335.2000 6.46660e-14 2.36600e-15
 10338.4000 6.49147e-14 2.47648e-15
 10341.6000 6.46140e-14 2.36399e-15
 10344.9000 6.43661e-14 2.25821e-15
 10348.1000 6.39407e-14 2.22676e-15
 10351.3000 6.40563e-14 2.26114e-15
 10354.6000 6.33721e-14 2.34375e-15
 10357.8000 6.39267e-14 2.43303e-15
 10361.0000 6.38892e-14 2.30485e-15
 10364.2000 6.37069e-14 2.24268e-15
 10367.5000 6.32858e-14 2.19109e-15
 10370.7000 6.32273e-14 2.24733e-15
 10373.9000 6.27631e-14 2.32498e-15
 10377.2000 6.24566e-14 2.34153e-15
 10380.4000 6.21980e-14 2.23883e-15
 10383.6000 6.21763e-14 2.16007e-15
 10386.9000 6.17676e-14 2.15388e-15
 10390.1000 6.21508e-14 2.19550e-15
 10393.3000 6.19912e-14 2.30952e-15
 10396.5000 6.20378e-14 2.32102e-15
 10399.8000 6.22437e-14 2.23871e-15
 10403.0000 6.21650e-14 2.16753e-15
 10406.2000 6.20684e-14 2.14695e-15
 10409.5000 6.17086e-14 2.20269e-15
 10412.7000 6.16684e-14 2.29227e-15
 10415.9000 6.19528e-14 2.29144e-15
 10419.2000 6.14687e-14 2.19202e-15
 10422.4000 6.13913e-14 2.11725e-15
 10425.6000 6.14089e-14 2.13158e-15
 10428.8000 6.16996e-14 2.19027e-15
 10432.1000 6.14478e-14 2.28993e-15
 10435.3000 6.16752e-14 2.27078e-15
 10438.5000 6.16489e-14 2.17068e-15
 10441.8000 6.16937e-14 2.12473e-15
 10445.0000 6.15230e-14 2.12371e-15
 10448.2000 6.18912e-14 2.21630e-15
 10451.5000 6.18286e-14 2.31091e-15
 10454.7000 6.21701e-14 2.25822e-15
 10457.9000 6.21698e-14 2.17375e-15
 10461.1000 6.29519e-14 2.15097e-15
 10464.4000 6.25590e-14 2.15507e-15
 10467.6000 6.26383e-14 2.24048e-15
 10470.8000 6.21518e-14 2.31852e-15
 10474.1000 6.18851e-14 2.22622e-15
 10477.3000 6.16208e-14 2.12926e-15
 10480.5000 6.23138e-14 2.11667e-15
 10483.8000 6.22496e-14 2.14283e-15
 10487.0000 6.24577e-14 2.22382e-15
 10490.2000 6.26535e-14 2.34762e-15
 10493.4000 6.29226e-14 2.24937e-15
 10496.7000 6.20048e-14 2.12568e-15
 10499.9000 6.25064e-14 2.12276e-15
 10503.1000 6.27775e-14 2.16736e-15
 10506.4000 6.27859e-14 2.25267e-15
 10509.6000 6.20489e-14 2.30638e-15
 10512.8000 6.20319e-14 2.19031e-15
 10516.1000 6.19973e-14 2.12897e-15
 10519.3000 6.22320e-14 2.10977e-15
 10522.5000 6.18658e-14 2.14150e-15
 10525.7000 6.17526e-14 2.21255e-15
 10529.0000 6.18946e-14 2.29100e-15
 10532.2000 6.21009e-14 2.20587e-15
 10535.4000 6.12344e-14 2.09037e-15
 10538.7000 6.08608e-14 2.06447e-15
 10541.9000 6.00460e-14 2.07297e-15
 10545.1000 6.01298e-14 2.17759e-15
 10548.4000 5.96428e-14 2.19873e-15
 10551.6000 5.96731e-14 2.10700e-15
 10554.8000 5.96847e-14 2.05616e-15
 10558.0000 5.90713e-14 2.01096e-15
 10561.3000 5.86896e-14 2.06516e-15
 10564.5000 5.79179e-14 2.10708e-15
 10567.7000 5.74036e-14 2.10882e-15
 10571.0000 5.71172e-14 2.01875e-15
 10574.2000 5.63483e-14 1.93427e-15
 10577.4000 5.60449e-14 1.94259e-15
 10580.7000 5.56109e-14 1.95836e-15
 10583.9000 5.56180e-14 2.07097e-15
 10587.1000 5.49114e-14 2.03415e-15
 10590.3000 5.43483e-14 1.91934e-15
 10593.6000 5.39077e-14 1.87983e-15
 10596.8000 5.32264e-14 1.84477e-15
 10600.0000 5.24067e-14 1.88565e-15
 10603.3000 5.20351e-14 1.94539e-15
 10606.5000 5.12387e-14 1.88895e-15
 10609.7000 5.11982e-14 1.83789e-15
 10613.0000 5.03711e-14 1.76249e-15
 10616.2000 4.99264e-14 1.77075e-15
 10619.4000 4.84637e-14 1.75643e-15
 10622.6000 4.80020e-14 1.82970e-15
 10625.9000 4.72871e-14 1.76714e-15
 10629.1000 4.69127e-14 1.68453e-15
 10632.3000 4.62393e-14 1.64147e-15
 10635.6000 4.54744e-14 1.62970e-15
 10638.8000 4.51685e-14 1.65349e-15
 10642.0000 4.47436e-14 1.75239e-15
 10645.3000 4.19188e-14 1.57615e-15
 10648.5000 4.22318e-14 1.55327e-15
 10651.7000 4.15474e-14 1.49672e-15
 10654.9000 4.11278e-14 1.51129e-15
 10658.2000 4.00603e-14 1.51220e-15
 10661.4000 3.95772e-14 1.57489e-15
 10664.6000 3.87373e-14 1.48497e-15
 10667.9000 3.78618e-14 1.40367e-15
 10671.1000 3.69583e-14 1.35511e-15
 10674.3000 3.63789e-14 1.36582e-15
 10677.6000 3.58329e-14 1.39315e-15
 10680.8000 3.56438e-14 1.45091e-15
 10684.0000 3.46959e-14 1.34786e-15
 10687.2000 3.44742e-14 1.31579e-15
 10690.5000 3.36256e-14 1.26871e-15
 10693.7000 3.30116e-14 1.27861e-15
 10696.9000 3.17556e-14 1.26994e-15
 10700.2000 3.11262e-14 1.28448e-15
 10703.4000 3.02289e-14 1.20270e-15
 10706.6000 2.94772e-14 1.14200e-15
 10709.9000 2.92019e-14 1.12476e-15
 10713.1000 2.91684e-14 1.15160e-15
 10716.3000 2.86536e-14 1.17273e-15
 10719.5000 2.84585e-14 1.19213e-15
 10722.8000 2.77887e-14 1.12066e-15
 10726.0000 2.75297e-14 1.08805e-15
 10729.2000 2.71433e-14 1.05946e-15
 10732.5000 2.68839e-14 1.07619e-15
 10735.7000 2.67233e-14 1.11178e-15
 10738.9000 2.66981e-14 1.12461e-15
 10742.2000 2.60795e-14 1.05644e-15
 10745.4000 2.58519e-14 1.02813e-15
 10748.6000 2.56109e-14 1.01538e-15
 10751.8000 2.57767e-14 1.03784e-15
 10755.1000 2.57038e-14 1.07319e-15
 10758.3000 2.56710e-14 1.07647e-15
 10761.5000 2.54396e-14 1.02449e-15
 10764.8000 2.54625e-14 1.00611e-15
 10768.0000 2.53537e-14 9.99859e-16
 10771.2000 2.56856e-14 1.04167e-15
 10774.5000 2.53758e-14 1.07830e-15
 10777.7000 2.59717e-14 1.10596e-15
 10780.9000 2.52712e-14 1.02029e-15
 10784.1000 2.54262e-14 9.93924e-16
 10787.4000 2.59070e-14 1.01201e-15
 10790.6000 2.60457e-14 1.04215e-15
 10793.8000 2.63124e-14 1.09700e-15
 10797.1000 2.64594e-14 1.08530e-15
 10800.3000 2.65541e-14 1.04710e-15
 10803.5000 2.70207e-14 1.04204e-15
 10806.8000 2.71718e-14 1.04677e-15
 10810.0000 2.76863e-14 1.09691e-15
 10813.2000 2.77958e-14 1.13847e-15
 10816.4000 2.80926e-14 1.12216e-15
 10819.7000 2.82085e-14 1.08336e-15
 10822.9000 2.84843e-14 1.07355e-15
 10826.1000 2.87382e-14 1.08824e-15
 10829.4000 2.90335e-14 1.49706e-15
 10832.6000 2.91511e-14 1.50586e-15
 10835.8000 2.94612e-14 1.51216e-15
 10839.1000 2.94633e-14 1.51172e-15
 10842.3000 2.97835e-14 1.52685e-15
 10845.5000 2.98987e-14 1.52709e-15
 10848.7000 3.03041e-14 1.54465e-15
 10852.0000 3.05287e-14 1.55878e-15
 10855.2000 3.10479e-14 1.58597e-15
 10858.4000 3.09797e-14 1.57851e-15
 10861.7000 3.11481e-14 1.58252e-15
 10864.9000 3.11779e-14 1.57906e-15
 10868.1000 3.15359e-14 1.59255e-15
 10871.4000 3.17043e-14 1.59555e-15
 10874.6000 3.18789e-14 1.60041e-15
 10877.8000 3.16802e-14 1.59091e-15
 10881.0000 3.15742e-14 1.58057e-15
 10884.3000 3.15965e-14 1.58222e-15
 10887.5000 3.18886e-14 1.59526e-15
 10890.7000 3.16923e-14 1.58367e-15
 10894.0000 3.19236e-14 1.59910e-15
 10897.2000 3.17291e-14 1.58786e-15
 10900.4000 3.15621e-14 1.58188e-15
 10903.7000 3.12366e-14 1.56403e-15
 10906.9000 3.13487e-14 1.56993e-15
 10910.1000 3.14127e-14 1.57021e-15
 10913.3000 3.12726e-14 1.55889e-15
 10916.6000 3.09384e-14 1.54550e-15
 10919.8000 3.08670e-14 1.55164e-15
 10923.0000 3.07268e-14 1.55047e-15
 10926.3000 3.03931e-14 1.52316e-15
 10929.5000 3.03891e-14 1.52854e-15
 10932.7000 3.08810e-14 1.55377e-15
 10936.0000 3.11085e-14 1.55939e-15
 10939.2000 3.08315e-14 1.54599e-15
 10942.4000 3.03307e-14 1.52337e-15
 10945.6000 3.00052e-14 1.50771e-15
 10948.9000 2.98245e-14 1.49852e-15
 10952.1000 2.94444e-14 1.48123e-15
 10955.3000 2.87627e-14 1.44808e-15
 10958.6000 2.91312e-14 1.47763e-15
 10961.8000 2.94388e-14 1.48788e-15
 10965.0000 2.93250e-14 1.47395e-15
 10968.3000 2.90377e-14 1.46578e-15
 10971.5000 2.90951e-14 1.47576e-15
 10974.7000 2.86038e-14 1.44897e-15
 10977.9000 2.79070e-14 1.41448e-15
 10981.2000 2.76574e-14 1.40496e-15
 10984.4000 2.75300e-14 1.40271e-15
 10987.6000 2.72648e-14 1.39195e-15
 10990.9000 2.67334e-14 1.36767e-15
 10994.1000 2.62136e-14 1.34055e-15
 10997.3000 2.61713e-14 1.34805e-15
 11000.6000 2.60030e-14 1.33363e-15
 11003.8000 2.57548e-14 1.32492e-15
 11007.0000 2.55819e-14 1.31076e-15
 11010.2000 2.54794e-14 1.31251e-15
 11013.5000 2.52247e-14 1.29914e-15
 11016.7000 2.50236e-14 1.29793e-15
 11019.9000 2.47911e-14 1.28262e-15
 11023.2000 2.45140e-14 1.27609e-15
 11026.4000 2.41906e-14 1.25538e-15
 11029.6000 2.41984e-14 1.25572e-15
 11032.9000 2.42306e-14 1.25402e-15
 11036.1000 2.39583e-14 1.24648e-15
 11039.3000 2.38241e-14 1.23972e-15
 11042.5000 2.36064e-14 1.23249e-15
 11045.8000 2.33366e-14 1.21356e-15
 11049.0000 2.33355e-14 1.21851e-15
 11052.2000 2.34647e-14 1.22252e-15
 11055.5000 2.32425e-14 1.21917e-15
 11058.7000 2.28812e-14 1.20136e-15
 11061.9000 2.26349e-14 1.19210e-15
 11065.2000 2.26017e-14 1.18335e-15
 11068.4000 2.27579e-14 1.18673e-15
 11071.6000 2.30788e-14 1.20370e-15
 11074.8000 2.30909e-14 1.20959e-15
 11078.1000 2.28982e-14 1.20310e-15
 11081.3000 2.25156e-14 1.19133e-15
 11084.5000 2.23666e-14 1.17572e-15
 11087.8000 2.23591e-14 1.17211e-15
 11091.0000 2.25373e-14 1.17261e-15
 11094.2000 2.26158e-14 1.18069e-15
 11097.5000 2.26793e-14 1.18473e-15
 11100.7000 2.26158e-14 1.18987e-15
 11103.9000 2.26587e-14 1.19936e-15
 11107.1000 2.24515e-14 1.19537e-15
 11110.4000 2.23178e-14 1.18434e-15
 11113.6000 2.23066e-14 1.17727e-15
 11116.8000 2.24532e-14 1.17692e-15
 11120.1000 2.25451e-14 1.18458e-15
 11123.3000 2.28553e-14 1.21152e-15
 11126.5000 2.28762e-14 1.23363e-15
 11129.8000 2.25774e-14 1.23080e-15
 11133.0000 2.18527e-14 1.19388e-15
 11136.2000 2.15475e-14 1.15994e-15
 11139.4000 2.18560e-14 1.16232e-15
 11142.7000 2.24313e-14 1.19359e-15
 11145.9000 2.25041e-14 1.21662e-15
 11149.1000 2.22942e-14 1.21574e-15
 11152.4000 2.21010e-14 1.21260e-15
 11155.6000 2.24163e-14 1.24015e-15
 11158.8000 2.24686e-14 1.27627e-15
 11162.1000 2.20346e-14 1.29441e-15
 11165.3000 2.10302e-14 1.25593e-15
 11168.5000 2.04421e-14 1.19764e-15
 11171.7000 2.03924e-14 1.14923e-15
 11175.0000 2.07913e-14 1.14573e-15
 11178.2000 2.10248e-14 1.15657e-15
 11181.4000 2.15437e-14 1.20146e-15
 11184.7000 2.11947e-14 1.20991e-15
 11187.9000 2.03864e-14 1.19081e-15
 11191.1000 1.99388e-14 1.16810e-15
 11194.4000 1.97719e-14 1.15121e-15
 11197.6000 1.94048e-14 1.12745e-15
 11200.8000 1.94586e-14 1.11723e-15
 11204.0000 1.95131e-14 1.10819e-15
 11207.3000 1.97187e-14 1.11259e-15
 11210.5000 2.00714e-14 1.14792e-15
 11213.7000 2.04236e-14 1.20708e-15
 11217.0000 2.00813e-14 1.25655e-15
 11220.2000 1.83640e-14 1.20982e-15
 11223.4000 1.68330e-14 1.11073e-15
 11223.6000 1.68435e-14 1.11339e-15
 11227.5000 1.63927e-14 1.08583e-15
 11231.3000 1.69072e-14 1.19049e-15
 11235.2000 1.74648e-14 1.12406e-15
 11239.1000 1.68350e-14 9.81970e-16
 11243.0000 1.69401e-14 9.51862e-16
 11246.8000 1.77348e-14 1.07766e-15
 11250.7000 1.73664e-14 1.26579e-15
 11254.6000 1.56374e-14 1.10646e-15
 11258.5000 1.39180e-14 9.19019e-16
 11262.3000 1.42545e-14 8.68036e-16
 11266.2000 1.51526e-14 9.41803e-16
 11270.1000 1.51228e-14 1.06469e-15
 11274.0000 1.47619e-14 1.01300e-15
 11277.8000 1.39992e-14 9.00390e-16
 11281.7000 1.36715e-14 8.54310e-16
 11285.6000 1.40119e-14 9.09214e-16
 11289.5000 1.36380e-14 1.01260e-15
 11293.3000 1.30848e-14 9.40840e-16
 11297.2000 1.25829e-14 8.23854e-16
 11301.1000 1.19744e-14 7.41193e-16
 11305.0000 1.18760e-14 7.40267e-16
 11308.8000 1.23143e-14 8.12969e-16
 11312.7000 1.25088e-14 7.84094e-16
 11316.6000 1.21139e-14 7.12093e-16
 11320.5000 1.16995e-14 6.97608e-16
 11324.4000 1.18915e-14 7.60154e-16
 11328.2000 1.16174e-14 8.58464e-16
 11332.1000 1.11935e-14 8.47190e-16
 11336.0000 1.10933e-14 8.28460e-16
 11339.9000 1.09493e-14 8.79862e-16
 11343.7000 1.00244e-14 9.53243e-16
 11347.6000 8.34216e-15 9.15362e-16
 11351.5000 8.38037e-15 7.33910e-16
 11355.4000 8.68823e-15 6.39943e-16
 11359.2000 8.66008e-15 5.95623e-16
 11363.1000 8.83460e-15 6.01811e-16
 11367.0000 9.02258e-15 6.43984e-16
 11370.9000 9.28129e-15 6.27561e-16
 11374.7000 9.09027e-15 5.83630e-16
 11378.6000 8.88551e-15 5.72318e-16
 11382.5000 8.47232e-15 5.79920e-16
 11386.4000 8.57425e-15 6.26230e-16
 11390.2000 8.67961e-15 5.94420e-16
 11394.1000 8.59142e-15 5.49960e-16
 11398.0000 8.61619e-15 5.45194e-16
 11401.9000 8.43949e-15 5.73057e-16
 11405.7000 8.18264e-15 6.20767e-16
 11409.6000 8.17266e-15 5.92886e-16
 11413.5000 8.06506e-15 5.40307e-16
 11417.4000 7.74884e-15 5.10386e-16
 11421.2000 7.73950e-15 5.26250e-16
 11425.1000 7.84413e-15 5.67814e-16
 11429.0000 8.10608e-15 5.60647e-16
 11432.9000 8.12701e-15 5.41261e-16
 11436.7000 8.03387e-15 5.49349e-16
 11440.6000 7.73857e-15 5.79594e-16
 11444.5000 7.46617e-15 6.19769e-16
 11448.4000 7.43150e-15 5.78083e-16
 11452.2000 7.50868e-15 5.38809e-16
 11456.1000 7.81032e-15 5.41007e-16
 11460.0000 7.88061e-15 5.78176e-16
 11463.9000 7.83738e-15 6.48104e-16
 11467.7000 7.64831e-15 6.17211e-16
 11471.6000 7.36797e-15 5.37802e-16
 11475.5000 7.36180e-15 4.98092e-16
 11479.4000 7.72596e-15 5.17785e-16
 11483.3000 8.05728e-15 5.77649e-16
 11487.1000 8.35898e-15 5.85061e-16
 11491.0000 8.30619e-15 5.54817e-16
 11494.9000 7.80399e-15 5.31489e-16
 11498.8000 7.73373e-15 5.44089e-16
 11502.6000 7.72251e-15 5.75695e-16
 11506.5000 7.91639e-15 5.50749e-16
 11510.4000 8.31783e-15 5.28622e-16
 11514.3000 8.46381e-15 5.25669e-16
 11518.1000 8.56627e-15 5.69206e-16
 11522.0000 8.37685e-15 6.19098e-16
 11525.9000 8.22677e-15 5.71412e-16
 11529.8000 8.48626e-15 5.34700e-16
 11533.6000 8.55286e-15 5.28596e-16
 11537.5000 8.70389e-15 5.67068e-16
 11541.4000 8.52695e-15 5.99787e-16
 11545.3000 8.41687e-15 5.59886e-16
 11549.1000 8.56019e-15 5.25646e-16
 11553.0000 8.69074e-15 5.18749e-16
 11556.9000 8.79335e-15 5.45071e-16
 11560.8000 8.70040e-15 5.76766e-16
 11564.6000 8.76867e-15 5.55493e-16
 11568.5000 8.95913e-15 5.25855e-16
 11572.4000 8.81592e-15 5.14506e-16
 11576.3000 8.71533e-15 5.31452e-16
 11580.1000 8.70252e-15 5.69352e-16
 11584.0000 8.78422e-15 5.50533e-16
 11587.9000 8.94455e-15 5.19781e-16
 11591.8000 8.83575e-15 5.07268e-16
 11595.6000 8.82558e-15 5.28846e-16
 11599.5000 8.74795e-15 5.70787e-16
 11603.4000 8.63223e-15 5.40435e-16
 11607.3000 8.67329e-15 5.01267e-16
 11611.1000 8.63264e-15 4.87705e-16
 11615.0000 8.68648e-15 5.09094e-16
 11618.9000 8.51294e-15 5.43082e-16
 11622.8000 8.56659e-15 5.21826e-16
 11626.6000 8.52563e-15 4.82833e-16
 11630.5000 8.39529e-15 4.69065e-16
 11634.4000 8.45629e-15 4.90367e-16
 11638.3000 8.34206e-15 5.25273e-16
 11642.2000 8.29021e-15 5.05162e-16
 11646.0000 8.11084e-15 4.67739e-16
 11649.9000 8.05718e-15 4.59307e-16
 11653.8000 7.98811e-15 4.80282e-16
 11657.7000 7.71399e-15 5.03516e-16
 11661.5000 7.59671e-15 4.78424e-16
 11665.4000 7.54598e-15 4.44447e-16
 11669.3000 7.34737e-15 4.26543e-16
 11673.2000 7.22469e-15 4.35469e-16
 11677.0000 7.17225e-15 4.67371e-16
 11680.9000 7.09789e-15 4.47875e-16
 11684.8000 7.03361e-15 4.16485e-16
 11688.7000 6.75415e-15 3.96065e-16
 11692.5000 6.63970e-15 4.08917e-16
 11696.4000 6.53433e-15 4.34753e-16
 11700.3000 6.45791e-15 4.16617e-16
 11704.2000 6.22984e-15 3.83045e-16
 11708.0000 6.11006e-15 3.69636e-16
 11711.9000 5.92420e-15 3.75091e-16
 11715.8000 5.78565e-15 3.97087e-16
 11719.7000 5.70678e-15 3.79988e-16
 11723.5000 5.57215e-15 3.53875e-16
 11727.4000 5.42021e-15 3.41286e-16
 11731.3000 5.37958e-15 3.53946e-16
 11735.2000 5.15304e-15 3.76389e-16
 11739.0000 5.00461e-15 3.57588e-16
 11742.9000 4.96409e-15 3.31086e-16
 11746.8000 4.77448e-15 3.16357e-16
 11750.7000 4.78569e-15 3.29380e-16
 11754.5000 4.66544e-15 3.46420e-16
 11758.4000 4.58186e-15 3.28474e-16
 11762.3000 4.52560e-15 3.05195e-16
 11766.2000 4.48159e-15 2.97629e-16
 11770.0000 4.29016e-15 3.04829e-16
 11773.9000 4.17189e-15 3.24662e-16
 11777.8000 4.12984e-15 3.08955e-16
 11781.7000 4.05448e-15 2.85056e-16
 11785.5000 3.92949e-15 2.74575e-16
 11789.4000 3.91552e-15 2.83887e-16
 11793.3000 3.75114e-15 2.97793e-16
 11797.2000 3.68992e-15 2.86303e-16
 11801.1000 3.66309e-15 2.65327e-16
 11804.9000 3.52862e-15 2.54251e-16
 11808.8000 3.57540e-15 2.66997e-16
 11812.7000 3.56442e-15 2.93024e-16
 11816.6000 3.51018e-15 2.84224e-16
 11820.4000 3.39730e-15 2.59933e-16
 11824.3000 3.29421e-15 2.47766e-16
 11828.2000 3.34476e-15 2.54722e-16
 11832.1000 3.30727e-15 2.71367e-16
 11835.9000 3.39011e-15 2.69142e-16
 11839.8000 3.36665e-15 2.54570e-16
 11843.7000 3.26281e-15 2.46085e-16
 11847.6000 3.28341e-15 2.54824e-16
 11851.4000 3.29084e-15 2.68349e-16
 11855.3000 3.25494e-15 2.57862e-16
 11859.2000 3.23283e-15 2.42002e-16
 11863.1000 3.26224e-15 2.38479e-16
 11866.9000 3.29581e-15 2.49017e-16
 11870.8000 3.26306e-15 2.67367e-16
 11874.7000 3.20275e-15 2.62425e-16
 11878.6000 3.27045e-15 2.51845e-16
 11882.4000 3.31644e-15 2.45643e-16
 11886.3000 3.27447e-15 2.51618e-16
 11890.2000 3.26057e-15 2.66373e-16
 11894.1000 3.35472e-15 2.61891e-16
 11897.9000 3.37547e-15 2.48437e-16
 11901.8000 3.34410e-15 2.43406e-16
 11905.7000 3.44248e-15 2.55037e-16
 11909.6000 3.49841e-15 2.72931e-16
 11913.4000 3.48676e-15 2.63927e-16
 11917.3000 3.49642e-15 2.49486e-16
 11921.2000 3.51245e-15 2.45644e-16
 11925.1000 3.54179e-15 2.56816e-16
 11928.9000 3.62146e-15 2.76232e-16
 11932.8000 3.65613e-15 2.72479e-16
 11936.7000 3.65843e-15 2.57222e-16
 11940.6000 3.68366e-15 2.52853e-16
 11944.4000 3.63147e-15 2.58522e-16
 11948.3000 3.66009e-15 2.77421e-16
 11952.2000 3.68025e-15 2.74488e-16
 11956.1000 3.80341e-15 2.63973e-16
 11960.0000 3.89782e-15 2.60208e-16
 11963.8000 3.86766e-15 2.66674e-16
 11967.7000 3.87907e-15 2.83912e-16
 11971.6000 3.86761e-15 2.80172e-16
 11975.5000 3.90976e-15 2.67357e-16
 11979.3000 3.93716e-15 2.64086e-16
 11983.2000 3.93949e-15 2.73199e-16
 11987.1000 3.88616e-15 2.91185e-16
 11991.0000 3.94314e-15 2.86946e-16
 11994.8000 4.09949e-15 2.73380e-16
 11998.7000 4.01262e-15 2.64926e-16
 12002.6000 4.05927e-15 2.75764e-16
 12006.5000 4.11134e-15 2.94122e-16
 12010.3000 4.18505e-15 2.94263e-16
 12014.2000 4.18104e-15 2.78847e-16
 12018.1000 4.13307e-15 2.70669e-16
 12022.0000 4.18642e-15 2.78825e-16
 12025.8000 4.25717e-15 2.99819e-16
 12029.7000 4.17656e-15 2.94720e-16
 12033.6000 4.18490e-15 2.84128e-16
 12037.5000 4.20514e-15 2.79425e-16
 12041.3000 4.20292e-15 2.86109e-16
 12045.2000 4.15465e-15 2.97874e-16
 12049.1000 4.20973e-15 2.92107e-16
 12053.0000 4.21126e-15 2.75274e-16
 12056.8000 4.22638e-15 2.69363e-16
 12060.7000 4.26239e-15 2.79038e-16
 12064.6000 4.32288e-15 2.99827e-16
 12068.5000 4.29199e-15 2.92471e-16
 12072.3000 4.18767e-15 2.74918e-16
 12076.2000 4.23588e-15 2.70124e-16
 12080.1000 4.22014e-15 2.78062e-16
 12084.0000 4.29596e-15 2.95793e-16
 12087.8000 4.25758e-15 2.90189e-16
 12091.7000 4.18710e-15 2.73223e-16
 12095.6000 3.97166e-15 2.59731e-16
 12099.5000 4.02729e-15 2.68401e-16
 12103.3000 4.01539e-15 2.82317e-16
 12107.2000 3.93970e-15 2.75718e-16
 12111.1000 3.99092e-15 2.64871e-16
 12115.0000 4.02099e-15 2.60575e-16
 12118.8000 3.96332e-15 2.65871e-16
 12122.7000 3.90832e-15 2.77863e-16
 12126.6000 3.85786e-15 2.67573e-16
 12130.5000 3.86996e-15 2.56753e-16
 12134.4000 3.83036e-15 2.51817e-16
 12138.2000 3.75326e-15 2.56413e-16
 12142.1000 3.73098e-15 2.70200e-16
 12146.0000 3.69468e-15 2.63853e-16
 12149.9000 3.57731e-15 2.45926e-16
 12153.7000 3.50154e-15 2.36709e-16
 12157.6000 3.49051e-15 2.42938e-16
 12161.5000 3.52914e-15 2.58149e-16
 12165.4000 3.50753e-15 2.51817e-16
 12169.2000 3.47882e-15 2.39729e-16
 12173.1000 3.41647e-15 2.31564e-16
 12177.0000 3.36749e-15 2.37101e-16
 12180.9000 3.35052e-15 2.48481e-16
 12184.7000 3.23817e-15 2.41171e-16
 12188.6000 3.24575e-15 2.29368e-16
 12192.5000 3.16172e-15 2.21458e-16
 12196.4000 3.11284e-15 2.26212e-16
 12200.2000 3.12137e-15 2.38822e-16
 12204.1000 3.10543e-15 2.32482e-16
 12208.0000 3.10169e-15 2.20871e-16
 12211.9000 3.03344e-15 2.16256e-16
 12215.7000 3.02378e-15 2.22785e-16
 12219.6000 2.92679e-15 2.28478e-16
 12223.5000 2.86569e-15 2.23228e-16
 12227.4000 2.86560e-15 2.12372e-16
 12231.2000 2.90868e-15 2.10274e-16
 12235.1000 2.94190e-15 2.15182e-16
 12239.0000 2.89959e-15 2.22890e-16
 12242.9000 2.88128e-15 2.19177e-16
 12246.7000 2.84729e-15 2.08821e-16
 12250.6000 2.78242e-15 2.04083e-16
 12254.5000 2.86968e-15 2.12603e-16
 12258.4000 2.83872e-15 2.22733e-16
 12262.2000 2.84693e-15 2.20146e-16
 12266.1000 2.83342e-15 2.08815e-16
 12270.0000 2.84927e-15 2.05000e-16
 12273.9000 2.82638e-15 2.09583e-16
 12277.7000 2.83064e-15 2.19545e-16
 12281.6000 2.84563e-15 2.17421e-16
 12285.5000 2.88508e-15 2.10581e-16
 12289.4000 2.97001e-15 2.09413e-16
 12293.3000 2.99420e-15 2.15639e-16
 12297.1000 3.03010e-15 2.27891e-16
 12301.0000 3.02496e-15 2.25532e-16
 12304.9000 3.10964e-15 2.18192e-16
 12308.8000 3.18858e-15 2.18326e-16
 12312.6000 3.27048e-15 2.27757e-16
 12316.5000 3.23416e-15 2.36392e-16
 12320.4000 3.32212e-15 2.37466e-16
 12324.3000 3.44298e-15 2.32566e-16
 12328.1000 3.44025e-15 2.28333e-16
 12332.0000 3.56710e-15 2.38934e-16
 12335.9000 3.64924e-15 2.53221e-16
 12339.8000 3.66745e-15 2.51467e-16
 12343.6000 3.67373e-15 2.41190e-16
 12347.5000 3.73933e-15 2.39475e-16
 12351.4000 3.89648e-15 2.51465e-16
 12355.3000 4.02388e-15 2.67998e-16
 12359.1000 4.13956e-15 2.70569e-16
 12363.0000 4.23648e-15 2.62867e-16
 12366.9000 4.26596e-15 2.59450e-16
 12370.8000 4.41551e-15 2.71726e-16
 12374.6000 4.51229e-15 2.87517e-16
 12378.5000 4.61090e-15 2.88785e-16
 12382.4000 4.73846e-15 2.81370e-16
 12386.3000 4.81663e-15 2.78583e-16
 12390.1000 4.91155e-15 2.87980e-16
 12394.0000 5.03540e-15 3.06023e-16
 12397.9000 5.13621e-15 3.08807e-16
 12401.8000 5.26120e-15 3.02998e-16
 12405.6000 5.43734e-15 3.04114e-16
 12409.5000 5.57711e-15 3.14781e-16
 12413.4000 5.69370e-15 3.32713e-16
 12417.3000 5.80260e-15 3.35257e-16
 12421.1000 5.89877e-15 3.23710e-16
 12425.0000 5.98177e-15 3.25755e-16
 12428.9000 6.15190e-15 3.38514e-16
 12432.8000 6.28104e-15 3.53943e-16
 12436.6000 6.48550e-15 3.60239e-16
 12440.5000 6.61792e-15 3.50756e-16
 12444.4000 6.76395e-15 3.50357e-16
 12448.3000 6.92753e-15 3.62784e-16
 12452.2000 7.03594e-15 3.83230e-16
 12456.0000 7.18350e-15 3.87791e-16
 12459.9000 7.28515e-15 3.74025e-16
 12463.8000 7.42654e-15 3.72371e-16
 12467.7000 7.64695e-15 3.88457e-16
 12471.5000 7.70482e-15 4.06722e-16
 12475.4000 7.87084e-15 4.10640e-16
 12479.3000 7.99360e-15 3.98090e-16
 12483.2000 8.06757e-15 3.95329e-16
 12487.0000 8.22665e-15 4.06694e-16
 12490.9000 8.41533e-15 4.32867e-16
 12494.8000 8.58058e-15 4.37215e-16
 12498.7000 8.62273e-15 4.19391e-16
 12502.5000 8.80786e-15 4.20317e-16
 12506.4000 9.01440e-15 4.35244e-16
 12510.3000 9.07752e-15 4.57628e-16
 12514.2000 9.15510e-15 4.56919e-16
 12518.0000 9.37678e-15 4.47138e-16
 12521.9000 9.49310e-15 4.45023e-16
 12525.8000 9.58928e-15 4.55097e-16
 12529.7000 9.74286e-15 4.80527e-16
 12533.5000 9.90051e-15 4.83162e-16
 12537.4000 1.00038e-14 4.67017e-16
 12541.3000 1.01770e-14 4.68546e-16
 12545.2000 1.02578e-14 4.79043e-16
 12549.0000 1.04208e-14 5.04883e-16
 12552.9000 1.05064e-14 5.07572e-16
 12556.8000 1.06662e-14 4.93602e-16
 12560.7000 1.07204e-14 4.84755e-16
 12564.5000 1.08336e-14 4.98849e-16
 12568.4000 1.09205e-14 5.24887e-16
 12572.3000 1.11110e-14 5.29743e-16
 12576.2000 1.12314e-14 5.11174e-16
 12580.0000 1.13267e-14 5.07757e-16
 12583.9000 1.14260e-14 5.21758e-16
 12587.8000 1.15398e-14 5.49971e-16
 12591.7000 1.15264e-14 5.46512e-16
 12595.5000 1.16429e-14 5.26131e-16
 12599.4000 1.16225e-14 5.18526e-16
 12603.3000 1.18781e-14 5.38857e-16
 12607.2000 1.18865e-14 5.62189e-16
 12611.1000 1.20398e-14 5.67484e-16
 12614.9000 1.20331e-14 5.44368e-16
 12618.8000 1.21067e-14 5.39781e-16
 12622.7000 1.20528e-14 5.50213e-16
 12626.6000 1.21185e-14 5.75901e-16
 12630.4000 1.20661e-14 5.69382e-16
 12634.3000 1.21170e-14 5.49853e-16
 12638.2000 1.22316e-14 7.33944e-16
 12642.1000 1.24087e-14 7.43344e-16
 12645.9000 1.23722e-14 7.44572e-16
 12649.8000 1.24259e-14 7.42556e-16
 12653.7000 1.23355e-14 7.40241e-16
 12657.6000 1.24658e-14 7.44974e-16
 12661.4000 1.23294e-14 7.38443e-16
 12665.3000 1.24003e-14 7.38540e-16
 12669.2000 1.23680e-14 7.35718e-16
 12673.1000 1.26145e-14 7.45741e-16
 12676.9000 1.25387e-14 7.45560e-16
 12680.8000 1.26407e-14 7.54650e-16
 12684.7000 1.22859e-14 7.54836e-16
 12688.6000 1.22409e-14 7.59821e-16
 12692.4000 1.23491e-14 7.65288e-16
 12696.3000 1.24903e-14 7.54671e-16
 12700.2000 1.24101e-14 7.42443e-16
 12704.1000 1.25905e-14 7.42012e-16
 12707.9000 1.23618e-14 7.26509e-16
 12711.8000 1.24673e-14 7.30933e-16
 12715.7000 1.24510e-14 7.34554e-16
 12719.6000 1.25878e-14 7.36709e-16
 12723.4000 1.24228e-14 7.31222e-16
 12727.3000 1.25234e-14 7.34860e-16
 12731.2000 1.21477e-14 7.15197e-16
 12735.1000 1.22688e-14 7.18541e-16
 12738.9000 1.20532e-14 7.10408e-16
 12742.8000 1.21821e-14 7.11469e-16
 12746.7000 1.20228e-14 7.05724e-16
 12750.6000 1.20564e-14 7.02814e-16
 12754.4000 1.19578e-14 7.01527e-16
 12758.3000 1.20059e-14 7.02021e-16
 12762.2000 1.17764e-14 6.92972e-16
 12766.1000 1.18961e-14 6.95959e-16
 12770.0000 1.15341e-14 6.81256e-16
 12773.8000 1.16093e-14 6.75885e-16
 12777.7000 1.14948e-14 6.77961e-16
 12781.6000 1.14814e-14 6.71549e-16
 12785.5000 1.12642e-14 6.63305e-16
 12789.3000 1.13022e-14 6.59608e-16
 12793.2000 1.10249e-14 6.51585e-16
 12797.1000 1.10047e-14 6.43523e-16
 12801.0000 1.09180e-14 6.45823e-16
 12804.8000 1.09664e-14 6.43111e-16
 12808.7000 1.07217e-14 6.34244e-16
 12812.6000 1.09602e-14 6.44207e-16
 12816.5000 1.07391e-14 6.33009e-16
 12820.3000 1.07989e-14 6.35618e-16
 12824.2000 1.05630e-14 6.24014e-16
 12828.1000 1.06904e-14 6.29104e-16
 12832.0000 1.04787e-14 6.18734e-16
 12835.8000 1.05685e-14 6.22707e-16
 12839.7000 1.03061e-14 6.10850e-16
 12843.6000 1.04830e-14 6.14665e-16
 12847.5000 1.03892e-14 6.23738e-16
 12851.3000 1.05117e-14 6.20912e-16
 12855.2000 1.02218e-14 6.10660e-16
 12859.1000 1.03854e-14 6.13644e-16
 12863.0000 1.00732e-14 6.07322e-16
 12866.8000 1.00032e-14 5.96383e-16
 12870.7000 9.81888e-15 5.92295e-16
 12874.6000 9.77432e-15 5.80735e-16
 12878.5000 9.46244e-15 5.73997e-16
 12882.3000 9.47836e-15 5.66572e-16
 12886.2000 9.24792e-15 5.62808e-16
 12890.1000 9.54739e-15 5.71099e-16
 12894.0000 9.17687e-15 5.59236e-16
 12897.8000 9.23951e-15 5.55678e-16
 12901.7000 8.84487e-15 5.41928e-16
 12905.6000 8.97239e-15 5.41464e-16
 12909.5000 8.72595e-15 5.36040e-16
 12913.3000 8.73445e-15 5.31957e-16
 12917.2000 8.51971e-15 5.24238e-16
 12921.1000 8.69610e-15 5.29812e-16
 12925.0000 8.42434e-15 5.18772e-16
 12928.9000 8.57471e-15 5.23698e-16
 12932.7000 8.26075e-15 5.10643e-16
 12936.6000 8.37066e-15 5.13346e-16
 12940.5000 8.15291e-15 5.07630e-16
 12944.4000 8.31020e-15 5.08165e-16
 12948.2000 8.12037e-15 5.05972e-16
 12952.1000 8.10992e-15 5.01879e-16
 12956.0000 7.92811e-15 4.96265e-16
 12959.9000 7.92938e-15 4.92196e-16
 12963.7000 7.72098e-15 4.85297e-16
 12967.6000 7.72000e-15 4.80923e-16
 12971.5000 7.56753e-15 4.76901e-16
 12975.4000 7.63088e-15 4.77474e-16
 12979.2000 7.47196e-15 4.74988e-16
 12983.1000 7.55273e-15 4.72442e-16
 12987.0000 7.38598e-15 4.66651e-16
 12990.9000 7.33702e-15 4.61169e-16
 12994.7000 7.21602e-15 4.58900e-16
 12998.6000 7.14778e-15 4.54288e-16
 13002.5000 6.91604e-15 4.46012e-16
 13006.4000 7.03747e-15 4.49450e-16
 13010.2000 6.81687e-15 4.40814e-16
 13014.1000 6.79760e-15 4.36635e-16
 13018.0000 6.70186e-15 4.33763e-16
 13021.9000 6.76211e-15 4.31417e-16
 13025.7000 6.63842e-15 4.29915e-16
 13029.6000 6.62692e-15 4.27827e-16
 13033.5000 6.43495e-15 4.22202e-16
 13037.4000 6.43685e-15 4.19343e-16
 13041.2000 6.25118e-15 4.15281e-16
 13045.1000 6.40565e-15 4.19373e-16
 13049.0000 6.20990e-15 4.11934e-16
 13052.9000 6.21561e-15 4.07414e-16
 13056.7000 6.00608e-15 3.97129e-16
 13060.6000 6.10712e-15 4.03992e-16
 13064.5000 5.96604e-15 4.01611e-16
 13068.4000 5.91393e-15 3.96315e-16
 13072.2000 5.85076e-15 3.94165e-16
 13076.1000 5.92058e-15 3.93781e-16
 13080.0000 5.78436e-15 3.89297e-16
 13083.9000 5.81052e-15 3.88166e-16
 13087.8000 5.64511e-15 3.81900e-16
 13091.6000 5.60081e-15 3.77610e-16
 13095.5000 5.46363e-15 3.75777e-16
 13099.4000 5.51886e-15 3.75922e-16
 13103.3000 5.43284e-15 3.74253e-16
 13107.1000 5.52531e-15 3.74545e-16
 13111.0000 5.39511e-15 3.69300e-16
 13114.9000 5.44245e-15 3.65347e-16
 13118.8000 5.28831e-15 3.60331e-16
 13122.6000 5.36468e-15 3.64321e-16
 13126.5000 5.18310e-15 3.59484e-16
 13130.4000 5.26004e-15 3.64721e-16
 13134.3000 5.05732e-15 3.57865e-16
 13138.1000 5.10541e-15 3.57068e-16
 13142.0000 4.96873e-15 3.53506e-16
 13145.9000 5.00540e-15 3.51122e-16
 13149.8000 4.94903e-15 3.49323e-16
 13153.6000 4.97349e-15 3.47700e-16
 13157.5000 4.82088e-15 3.41952e-16
 13161.4000 4.94331e-15 3.44064e-16
 13165.3000 4.77549e-15 3.38725e-16
 13169.1000 4.79327e-15 3.36050e-16
 13173.0000 4.68121e-15 3.32945e-16
 13176.9000 4.69116e-15 3.31950e-16
 13180.8000 4.59679e-15 3.29461e-16
 13184.6000 4.65942e-15 3.32556e-16
 13188.5000 4.48211e-15 3.26646e-16
 13192.4000 4.50814e-15 3.24949e-16
 13196.3000 4.48717e-15 3.29188e-16
 13200.1000 4.43804e-15 3.25782e-16
 13204.0000 4.30039e-15 3.19825e-16
 13207.9000 4.36096e-15 3.17609e-16
 13211.8000 4.26781e-15 3.14964e-16
 13215.6000 4.37689e-15 3.16342e-16
 13219.5000 4.24367e-15 3.11541e-16
 13223.4000 4.24156e-15 3.10952e-16
 13227.3000 4.14239e-15 3.09983e-16
 13231.1000 4.22535e-15 3.13103e-16
 13235.0000 4.08790e-15 3.09733e-16
 13238.9000 4.11094e-15 3.07284e-16
 13242.8000 4.10822e-15 3.07094e-16
 13246.7000 4.10103e-15 3.02280e-16
 13250.5000 4.00891e-15 2.97829e-16
 13254.4000 3.99030e-15 2.94726e-16
 13258.3000 3.93748e-15 2.94885e-16
 13262.2000 3.93893e-15 2.93120e-16
 13266.0000 3.83491e-15 2.91577e-16
 13269.9000 3.84544e-15 2.91486e-16
 13273.8000 3.83452e-15 2.93304e-16
 13277.7000 3.78901e-15 2.91052e-16
 13281.5000 3.63588e-15 2.86865e-16
 13285.4000 3.66678e-15 2.91358e-16
 13289.3000 3.60572e-15 2.90831e-16
 13293.2000 3.61058e-15 2.87089e-16
 13297.0000 3.56304e-15 2.83753e-16
 13300.9000 3.61680e-15 2.83201e-16
 13304.8000 3.54242e-15 2.83702e-16
 13308.7000 3.47997e-15 2.83263e-16
 13312.5000 3.36314e-15 2.84235e-16
 13316.4000 3.37613e-15 2.86460e-16
 13320.3000 3.33139e-15 2.83833e-16
 13324.2000 3.35928e-15 2.79594e-16
 13328.0000 3.39163e-15 2.80245e-16
 13331.9000 3.38496e-15 2.77589e-16
 13335.8000 3.31966e-15 2.78190e-16
 13339.7000 3.34213e-15 2.77699e-16
 13343.5000 3.27117e-15 2.72108e-16
 13347.4000 3.33382e-15 2.68977e-16
 13351.3000 3.26997e-15 2.66367e-16
 13355.2000 3.30768e-15 2.69200e-16
 13359.0000 3.27698e-15 2.70199e-16
 13362.9000 3.21961e-15 2.64877e-16
 13366.8000 3.19806e-15 2.65387e-16
 13370.7000 3.16801e-15 2.65318e-16
 13374.5000 3.10627e-15 2.65725e-16
 13378.4000 3.14156e-15 2.64101e-16
 13382.3000 3.09482e-15 2.60709e-16
 13386.2000 3.17422e-15 2.60148e-16
 13390.0000 3.08705e-15 2.58107e-16
 13393.9000 3.14857e-15 2.59846e-16
 13397.8000 3.00325e-15 2.58835e-16
 13401.7000 3.04476e-15 2.62153e-16
 13405.6000 2.97611e-15 2.59985e-16
 13409.4000 3.00468e-15 2.58571e-16
 13413.3000 2.97260e-15 2.54338e-16
 13417.2000 3.06045e-15 2.54424e-16
 13421.1000 3.00029e-15 2.50640e-16
 13424.9000 3.03562e-15 2.49556e-16
 13428.8000 3.00041e-15 2.51156e-16
 13432.7000 3.01468e-15 2.57104e-16
 13436.6000 2.87674e-15 2.63120e-16
 13440.4000 2.87028e-15 2.71341e-16
 13444.3000 2.90967e-15 2.79664e-16
 13448.2000 3.05455e-15 2.79296e-16
 13452.1000 2.98690e-15 2.70639e-16
 13455.9000 2.93830e-15 2.64695e-16
 13459.8000 2.87942e-15 2.65641e-16
 13463.7000 2.88373e-15 2.66922e-16
 13467.6000 2.86076e-15 2.68866e-16
 13471.4000 2.97815e-15 2.88190e-16
 13475.3000 2.86552e-15 3.08840e-16
 13479.2000 2.84523e-15 3.31296e-16
 13483.1000 2.82445e-15 3.34429e-16
 13486.9000 2.84367e-15 3.10182e-16
 13490.8000 2.91225e-15 2.97299e-16
 13494.7000 2.91250e-15 2.93694e-16
 13498.6000 2.87495e-15 3.06150e-16
 13502.4000 2.92138e-15 3.32202e-16
 13506.3000 2.87965e-15 3.58671e-16
 13510.2000 2.97450e-15 3.71788e-16
 13514.1000 2.88443e-15 3.64568e-16
 13517.9000 3.02861e-15 3.72584e-16
 13521.8000 2.80721e-15 3.65913e-16
 13525.7000 2.75471e-15 3.71763e-16
 13529.6000 2.78509e-15 3.94948e-16
 13533.4000 2.88483e-15 4.30961e-16
 13537.3000 3.03801e-15 4.86821e-16
 13541.2000 3.04354e-15 5.53797e-16
 13545.1000 2.62436e-15 6.34105e-16
 13548.9000 2.52551e-15 7.13199e-16
 13552.8000 2.96402e-15 7.38707e-16
 13556.7000 2.81532e-15 6.12616e-16
 13560.6000 2.75966e-15 5.18161e-16
 13564.4000 2.81816e-15 5.03917e-16
 13568.3000 2.91016e-15 5.24643e-16
 13572.2000 3.02342e-15 5.94056e-16
 13576.1000 2.81060e-15 6.52653e-16
 13580.0000 2.56516e-15 6.55456e-16
 13583.8000 2.73051e-15 6.99033e-16
 13587.7000 2.70668e-15 7.21170e-16
 13591.6000 2.59541e-15 7.69546e-16
 13595.5000 2.81907e-15 8.49910e-16
 13599.3000 3.19353e-15 9.20308e-16
 13603.2000 2.54666e-15 8.89147e-16
 13607.1000 2.91872e-15 1.28116e-15
 13611.0000 2.56662e-15 2.56584e-15
 13614.8000 2.21038e-15 4.63459e-15
 13618.7000 1.69715e-15 4.91497e-15
 13622.6000 4.52230e-15 2.41079e-15
 13626.5000 3.63364e-15 1.06549e-15
 13630.3000 3.69211e-15 8.28396e-16
 13634.2000 3.67929e-15 7.87221e-16
 13638.1000 3.42742e-15 8.66061e-16
 13642.0000 3.35418e-15 1.32554e-15
 13645.8000 2.36550e-15 2.07760e-15
 13649.7000 4.08096e-15 1.85169e-15
 13653.6000 4.39416e-15 1.10136e-15
 13657.5000 3.89950e-15 7.95343e-16
 13661.3000 3.75335e-15 7.19068e-16
 13665.2000 3.98219e-15 7.80547e-16
 13669.1000 4.69561e-15 1.13205e-15
 13673.0000 6.55018e-15 2.31722e-15
 13676.8000 4.88124e-15 4.94827e-15
 13680.7000 4.76114e-15 5.64040e-15
 13684.6000 4.25858e-15 2.26219e-15
 13688.5000 3.70533e-15 1.12536e-15
 13692.3000 3.85395e-15 1.00032e-15
 13696.2000 4.09071e-15 1.04598e-15
 13700.1000 4.52011e-15 1.26060e-15
 13704.0000 3.11715e-15 1.23854e-15
 13707.8000 1.94606e-15 1.66922e-15
 13711.7000 3.36316e-15 1.91975e-15
 13715.6000 3.45205e-15 1.48627e-15
 13719.5000 3.96768e-15 1.17360e-15
 13723.3000 4.15813e-15 9.95891e-16
 13727.2000 3.84251e-15 8.17168e-16
 13731.1000 4.59384e-15 7.60914e-16
 13735.0000 4.76531e-15 7.05037e-16
 13738.9000 4.70348e-15 6.94583e-16
 13742.7000 4.63119e-15 6.88604e-16
 13746.6000 4.56932e-15 6.55307e-16
 13750.5000 4.78154e-15 6.14389e-16
 13754.4000 4.72691e-15 5.80543e-16
 13758.2000 4.67332e-15 5.92158e-16
 13762.1000 4.44653e-15 6.33003e-16
 13766.0000 4.31834e-15 6.34615e-16
 13769.9000 5.05765e-15 6.11526e-16
 13773.7000 5.12973e-15 5.59651e-16
 13777.6000 4.99758e-15 5.30186e-16
 13781.5000 4.94476e-15 5.72106e-16
 13785.4000 4.42278e-15 6.23882e-16
 13789.2000 4.77301e-15 6.73361e-16
 13793.1000 4.60136e-15 6.27814e-16
 13797.0000 4.64712e-15 6.39658e-16
 13800.9000 5.13996e-15 8.10610e-16
 13804.7000 4.82784e-15 1.08505e-15
 13808.6000 4.74691e-15 1.29366e-15
 13812.5000 4.92905e-15 1.28681e-15
 13816.4000 4.48742e-15 1.13486e-15
 13820.2000 4.40536e-15 1.27678e-15
 13824.1000 3.77707e-15 1.90512e-15
 13828.0000 2.60052e-15 2.16403e-15
 13831.9000 3.20161e-15 1.36606e-15
 13835.7000 2.84379e-15 1.01357e-15
 13839.6000 3.24640e-15 9.92538e-16
 13843.5000 3.81106e-15 1.10064e-15
 13847.4000 3.85950e-15 1.10409e-15
 13851.2000 3.41980e-15 1.06864e-15
 13855.1000 3.15312e-15 8.36699e-16
 13859.0000 3.71196e-15 7.25301e-16
 13862.9000 4.11279e-15 6.31000e-16
 13866.7000 4.39132e-15 5.87698e-16
 13870.6000 4.36920e-15 5.72164e-16
 13874.5000 4.20088e-15 6.09047e-16
 13878.4000 3.80503e-15 6.59453e-16
 13882.2000 3.93335e-15 6.47345e-16
 13886.1000 4.34363e-15 5.46387e-16
 13890.0000 4.22610e-15 4.78159e-16
 13893.9000 4.21794e-15 4.54957e-16
 13897.8000 4.15174e-15 4.50388e-16
 13901.6000 4.02709e-15 4.48565e-16
 13905.5000 4.07692e-15 4.50625e-16
 13909.4000 4.28619e-15 4.61223e-16
 13913.3000 4.33131e-15 4.88877e-16
 13917.1000 4.27615e-15 5.44144e-16
 13921.0000 4.04772e-15 6.42689e-16
 13924.9000 3.69347e-15 6.88083e-16
 13928.8000 3.82226e-15 6.04088e-16
 13932.6000 3.65591e-15 5.09769e-16
 13936.5000 3.72468e-15 5.02260e-16
 13940.4000 4.06501e-15 5.81878e-16
 13944.3000 4.29736e-15 7.48736e-16
 13948.1000 4.57935e-15 1.17368e-15
 13952.0000 2.77094e-15 1.48866e-15
 13955.9000 1.49256e-15 1.56080e-15
 13959.8000 1.80081e-15 1.11323e-15
 13963.6000 2.89034e-15 7.83920e-16
 13967.5000 3.84104e-15 6.08033e-16
 13971.4000 3.92803e-15 4.70597e-16
 13975.3000 3.88358e-15 4.24392e-16
 13979.1000 3.85462e-15 4.04231e-16
 13983.0000 3.93138e-15 4.13899e-16
 13986.9000 3.91407e-15 4.37892e-16
 13990.8000 3.95780e-15 5.08827e-16
 13994.6000 4.71609e-15 7.52595e-16
 13998.5000 5.19382e-15 1.25243e-15
 14002.4000 1.79696e-15 1.70896e-15
 14006.3000 1.14543e-15 1.82334e-15
 14010.1000 2.65237e-15 1.01953e-15
 14014.0000 3.99070e-15 7.11737e-16
 14017.9000 4.08026e-15 5.10483e-16
 14021.8000 3.85749e-15 4.33824e-16
 14025.6000 3.70108e-15 4.04267e-16
 14029.5000 3.83259e-15 4.21368e-16
 14032.4000 3.81293e-15 4.01789e-16
 14037.3000 3.43194e-15 4.33708e-16
 14042.1000 3.99756e-15 6.44764e-16
 14047.0000 3.53528e-15 7.36584e-16
 14051.8000 3.56386e-15 4.96565e-16
 14056.7000 3.72139e-15 4.05645e-16
 14061.5000 3.76384e-15 4.07951e-16
 14066.4000 3.82645e-15 5.09975e-16
 14071.2000 3.48461e-15 4.85362e-16
 14076.0000 3.63110e-15 4.11831e-16
 14080.9000 3.60415e-15 3.91859e-16
 14085.7000 3.60814e-15 4.47749e-16
 14090.6000 3.09346e-15 4.84585e-16
 14095.4000 2.96268e-15 5.01288e-16
 14100.3000 3.33181e-15 4.71900e-16
 14105.1000 3.44409e-15 4.47129e-16
 14110.0000 3.41213e-15 3.69213e-16
 14114.8000 3.45607e-15 3.42129e-16
 14119.7000 3.67396e-15 3.62263e-16
 14124.5000 3.73419e-15 3.62509e-16
 14129.4000 3.68497e-15 3.21288e-16
 14134.2000 3.66060e-15 3.33092e-16
 14139.1000 3.54206e-15 4.15036e-16
 14143.9000 2.94595e-15 5.02775e-16
 14148.8000 3.29553e-15 4.60793e-16
 14153.6000 3.50940e-15 3.56908e-16
 14158.5000 3.43318e-15 3.16087e-16
 14163.3000 3.42897e-15 3.18409e-16
 14168.1000 3.40086e-15 2.94673e-16
 14173.0000 3.34069e-15 2.93585e-16
 14177.8000 3.36767e-15 3.15607e-16
 14182.7000 3.32404e-15 3.60106e-16
 14187.5000 3.27725e-15 3.89776e-16
 14192.4000 3.22451e-15 4.25229e-16
 14197.2000 3.15866e-15 4.19933e-16
 14202.1000 3.01736e-15 3.56231e-16
 14206.9000 3.12856e-15 2.98512e-16
 14211.8000 3.15684e-15 2.75178e-16
 14216.6000 3.13177e-15 2.71809e-16
 14221.5000 3.04000e-15 2.84147e-16
 14226.3000 2.99565e-15 2.77707e-16
 14231.2000 2.89798e-15 2.88030e-16
 14236.0000 2.86560e-15 3.10666e-16
 14240.9000 2.98037e-15 3.00779e-16
 14245.7000 2.92912e-15 2.59025e-16
 14250.6000 2.89355e-15 2.49282e-16
 14255.4000 2.87854e-15 2.69732e-16
 14260.2000 2.87753e-15 2.71921e-16
 14265.1000 2.87421e-15 2.44691e-16
 14269.9000 2.75339e-15 2.39045e-16
 14274.8000 2.74325e-15 2.74918e-16
 14279.6000 2.53322e-15 3.01764e-16
 14284.5000 2.59623e-15 2.72124e-16
 14289.3000 2.69258e-15 2.48540e-16
 14294.2000 2.75693e-15 2.44271e-16
 14299.0000 2.72373e-15 2.41186e-16
 14303.9000 2.68605e-15 2.19656e-16
 14308.7000 2.65178e-15 2.30356e-16
 14313.6000 2.48114e-15 2.71833e-16
 14318.4000 2.45910e-15 3.23530e-16
 14323.3000 2.46796e-15 2.82834e-16
 14328.1000 2.65470e-15 2.55095e-16
 14333.0000 2.70970e-15 2.49646e-16
 14337.8000 2.57980e-15 2.58102e-16
 14342.6000 2.56693e-15 2.48225e-16
 14347.5000 2.68554e-15 2.40741e-16
 14352.3000 2.71062e-15 2.40832e-16
 14357.2000 2.71443e-15 2.50500e-16
 14362.0000 2.65938e-15 2.37821e-16
 14366.9000 2.64977e-15 2.45220e-16
 14371.7000 2.55420e-15 2.70810e-16
 14376.6000 2.48830e-15 2.85078e-16
 14381.4000 2.77509e-15 2.55573e-16
 14386.3000 2.79401e-15 2.33989e-16
 14391.1000 2.75538e-15 2.39326e-16
 14396.0000 2.87767e-15 2.59356e-16
 14400.8000 2.90137e-15 2.39398e-16
 14405.7000 2.91910e-15 2.34954e-16
 14410.5000 2.86393e-15 2.47043e-16
 14415.4000 2.84931e-15 2.61257e-16
 14420.2000 2.91744e-15 2.43633e-16
 14425.1000 2.93247e-15 2.36696e-16
 14429.9000 3.07316e-15 2.47430e-16
 14434.7000 3.15026e-15 2.52759e-16
 14439.6000 3.15438e-15 2.32283e-16
 14444.4000 3.27597e-15 2.36543e-16
 14449.3000 3.09384e-15 2.57568e-16
 14454.1000 3.09647e-15 2.99536e-16
 14459.0000 3.24981e-15 2.88067e-16
 14463.8000 3.32171e-15 2.66510e-16
 14468.7000 3.44096e-15 2.63705e-16
 14473.5000 3.58238e-15 2.64002e-16
 14478.4000 3.59826e-15 2.39169e-16
 14483.2000 3.67271e-15 2.32930e-16
 14488.1000 3.64341e-15 2.41717e-16
 14492.9000 3.60505e-15 2.60822e-16
 14497.8000 3.54396e-15 2.65318e-16
 14502.6000 3.57656e-15 3.03498e-16
 14507.5000 3.66489e-15 3.44661e-16
 14512.3000 3.80212e-15 3.22025e-16
 14517.2000 3.88160e-15 2.78812e-16
 14522.0000 3.87541e-15 2.59226e-16
 14526.8000 4.03011e-15 2.68638e-16
 14531.7000 4.07513e-15 2.67937e-16
 14536.5000 4.11385e-15 2.45483e-16
 14541.4000 4.17563e-15 2.43547e-16
 14546.2000 4.12378e-15 2.59852e-16
 14551.1000 4.09796e-15 2.74971e-16
 14555.9000 4.22886e-15 2.63999e-16
 14560.8000 4.28030e-15 2.54110e-16
 14565.6000 4.26807e-15 2.59235e-16
 14570.5000 4.24166e-15 2.64224e-16
 14575.3000 4.32099e-15 2.50860e-16
 14580.2000 4.36408e-15 2.46471e-16
 14585.0000 4.36781e-15 2.54794e-16
 14589.9000 4.37915e-15 2.60324e-16
 14594.7000 4.41269e-15 2.52386e-16
 14599.6000 4.32050e-15 2.54582e-16
 14604.4000 4.27157e-15 2.72657e-16
 14609.2000 4.24980e-15 2.76144e-16
 14614.1000 4.33896e-15 2.58134e-16
 14618.9000 4.39498e-15 2.52431e-16
 14623.8000 4.34667e-15 2.65745e-16
 14628.6000 4.21077e-15 2.73160e-16
 14633.5000 4.32206e-15 2.65449e-16
 14638.3000 4.36121e-15 2.52139e-16
 14643.2000 4.40993e-15 2.58635e-16
 14648.0000 4.33163e-15 2.66877e-16
 14652.9000 4.29098e-15 2.61971e-16
 14657.7000 4.19411e-15 2.63793e-16
 14662.6000 4.16324e-15 2.82846e-16
 14667.4000 4.13136e-15 2.87951e-16
 14672.3000 4.10176e-15 2.67386e-16
 14677.1000 4.13221e-15 2.51025e-16
 14682.0000 4.13981e-15 2.56216e-16
 14686.8000 4.07380e-15 2.56795e-16
 14691.7000 3.95290e-15 2.46398e-16
 14696.5000 3.88521e-15 2.55699e-16
 14701.3000 3.95320e-15 2.84731e-16
 14706.2000 3.86287e-15 2.96593e-16
 14711.0000 3.82583e-15 2.74649e-16
 14715.9000 3.87038e-15 2.65811e-16
 14720.7000 3.92541e-15 2.73118e-16
 14725.6000 3.93838e-15 2.73687e-16
 14730.4000 3.96719e-15 2.52317e-16
 14735.3000 3.94861e-15 2.42920e-16
 14740.1000 3.94757e-15 2.43519e-16
 14745.0000 4.00985e-15 2.38949e-16
 14749.8000 3.96086e-15 2.24406e-16
 14754.7000 3.87278e-15 2.27614e-16
 14759.5000 3.86591e-15 2.44738e-16
 14764.4000 3.82430e-15 2.50461e-16
 14769.2000 3.85615e-15 2.41183e-16
 14774.1000 3.84538e-15 2.42698e-16
 14778.9000 3.91140e-15 2.53426e-16
 14783.8000 3.92151e-15 2.49276e-16
 14788.6000 3.87735e-15 2.31329e-16
 14793.4000 3.85801e-15 2.32384e-16
 14798.3000 3.83279e-15 2.47121e-16
 14803.1000 3.91296e-15 2.57561e-16
 14808.0000 3.92736e-15 2.38895e-16
 14812.8000 3.98290e-15 2.37313e-16
 14817.7000 4.01435e-15 2.46958e-16
 14822.5000 4.03047e-15 2.45788e-16
 14827.4000 4.08835e-15 2.29624e-16
 14832.2000 4.15116e-15 2.27840e-16
 14837.1000 4.06822e-15 2.35670e-16
 14841.9000 4.09936e-15 2.41938e-16
 14846.8000 4.11652e-15 2.32626e-16
 14851.6000 4.21136e-15 2.36349e-16
 14856.5000 4.23505e-15 2.46024e-16
 14861.3000 4.28882e-15 2.55552e-16
 14866.2000 4.32858e-15 2.47064e-16
 14871.0000 4.38896e-15 2.51746e-16
 14875.9000 4.48784e-15 2.62310e-16
 14880.7000 4.60290e-15 2.61755e-16
 14885.5000 4.63599e-15 2.45588e-16
 14890.4000 4.80080e-15 2.49650e-16
 14895.2000 4.84116e-15 2.60766e-16
 14900.1000 4.91456e-15 2.59996e-16
 14904.9000 4.93733e-15 2.46032e-16
 14909.8000 5.05868e-15 2.53243e-16
 14914.6000 5.07184e-15 2.66968e-16
 14919.5000 5.14863e-15 2.71061e-16
 14924.3000 5.19161e-15 2.58771e-16
 14929.2000 5.33244e-15 2.62994e-16
 14934.0000 5.45304e-15 2.77854e-16
 14938.9000 5.48377e-15 2.77552e-16
 14943.7000 5.53142e-15 2.66245e-16
 14948.6000 5.67795e-15 2.74146e-16
 14953.4000 5.80330e-15 2.92343e-16
 14958.3000 5.87789e-15 2.93527e-16
 14963.1000 5.99199e-15 2.83358e-16
 14967.9000 6.14014e-15 2.86468e-16
 14972.8000 6.19399e-15 3.00600e-16
 14977.6000 6.27741e-15 3.02184e-16
 14982.5000 6.31598e-15 2.89744e-16
 14987.3000 6.40503e-15 2.92746e-16
 14992.2000 6.56858e-15 3.11782e-16
 14997.0000 6.73450e-15 3.15441e-16
 15001.9000 6.85671e-15 3.04994e-16
 15006.7000 6.94650e-15 3.07507e-16
 15011.6000 7.03169e-15 3.25130e-16
 15016.4000 7.11686e-15 3.25857e-16
 15021.3000 7.20372e-15 3.14941e-16
 15026.1000 7.33111e-15 3.21471e-16
 15031.0000 7.43409e-15 3.44488e-16
 15035.8000 7.51137e-15 3.47709e-16
 15040.7000 7.68975e-15 3.41643e-16
 15045.5000 7.78482e-15 3.45546e-16
 15050.4000 7.90197e-15 3.62501e-16
 15055.2000 7.94473e-15 3.55534e-16
 15060.0000 8.04214e-15 3.41916e-16
 15064.9000 8.18592e-15 3.46644e-16
 15069.7000 8.29190e-15 3.66986e-16
 15074.6000 8.41895e-15 3.67599e-16
 15079.4000 8.57313e-15 3.61644e-16
 15084.3000 8.59730e-15 3.65768e-16
 15089.1000 8.76691e-15 3.90029e-16
 15094.0000 8.99542e-15 3.90025e-16
 15098.8000 9.08893e-15 3.76426e-16
 15103.7000 9.18413e-15 3.79772e-16
 15108.5000 9.28305e-15 4.01239e-16
 15113.4000 9.44573e-15 3.99540e-16
 15118.2000 9.50030e-15 3.86586e-16
 15123.1000 9.58792e-15 3.92465e-16
 15127.9000 9.75190e-15 4.16975e-16
 15132.8000 9.77747e-15 4.11334e-16
 15137.6000 9.94338e-15 4.01988e-16
 15142.5000 1.00624e-14 4.08329e-16
 15147.3000 1.01623e-14 4.30435e-16
 15152.1000 1.03554e-14 4.29430e-16
 15157.0000 1.04976e-14 4.19191e-16
 15161.8000 1.05847e-14 5.53245e-16
 15166.7000 1.06186e-14 5.57262e-16
 15171.5000 1.08108e-14 5.63985e-16
 15176.4000 1.08509e-14 5.66340e-16
 15181.2000 1.10727e-14 5.72807e-16
 15186.1000 1.11429e-14 5.80570e-16
 15190.9000 1.13678e-14 5.88060e-16
 15195.8000 1.13527e-14 5.83964e-16
 15200.6000 1.15647e-14 5.92709e-16
 15205.5000 1.15387e-14 5.88460e-16
 15210.3000 1.17483e-14 5.99869e-16
 15215.2000 1.17457e-14 5.99776e-16
 15220.0000 1.19974e-14 6.09199e-16
 15224.9000 1.19904e-14 6.09349e-16
 15229.7000 1.19807e-14 6.04280e-16
 15234.6000 1.19932e-14 6.07465e-16
 15239.4000 1.21278e-14 6.12064e-16
 15244.2000 1.21685e-14 6.16808e-16
 15249.1000 1.24082e-14 6.24637e-16
 15253.9000 1.25374e-14 6.28993e-16
 15258.8000 1.26852e-14 6.39115e-16
 15263.6000 1.28461e-14 6.44601e-16
 15268.5000 1.30277e-14 6.49185e-16
 15273.3000 1.30404e-14 6.54937e-16
 15278.2000 1.32127e-14 6.59132e-16
 15283.0000 1.31828e-14 6.58571e-16
 15287.9000 1.32200e-14 6.51130e-16
 15292.7000 1.36645e-14 6.80702e-16
 15297.6000 1.36378e-14 6.68994e-16
 15302.4000 1.36991e-14 6.75790e-16
 15307.3000 1.39543e-14 6.83828e-16
 15312.1000 1.39635e-14 6.91359e-16
 15317.0000 1.41345e-14 6.92081e-16
 15321.8000 1.40968e-14 6.93355e-16
 15326.7000 1.41341e-14 6.89344e-16
 15331.5000 1.42294e-14 6.98022e-16
 15336.3000 1.43050e-14 6.95316e-16
 15341.2000 1.45703e-14 7.16559e-16
 15346.0000 1.47242e-14 7.15251e-16
 15350.9000 1.49464e-14 7.29083e-16
 15355.7000 1.50154e-14 7.30873e-16
 15360.6000 1.51620e-14 7.39219e-16
 15365.4000 1.53211e-14 7.40469e-16
 15370.3000 1.52887e-14 7.36967e-16
 15375.1000 1.55006e-14 7.52134e-16
 15380.0000 1.54810e-14 7.48693e-16
 15384.8000 1.55089e-14 7.44789e-16
 15389.7000 1.56778e-14 7.58997e-16
 15394.5000 1.57251e-14 7.52962e-16
 15399.4000 1.56765e-14 7.50445e-16
 15404.2000 1.58325e-14 7.58624e-16
 15409.1000 1.60642e-14 7.74236e-16
 15413.9000 1.60702e-14 7.66615e-16
 15418.7000 1.61109e-14 7.73516e-16
 15423.6000 1.61220e-14 7.71606e-16
 15428.4000 1.63020e-14 7.87191e-16
 15433.3000 1.64023e-14 7.83625e-16
 15438.1000 1.64616e-14 7.86518e-16
 15443.0000 1.64207e-14 7.86828e-16
 15447.8000 1.65425e-14 7.92208e-16
 15452.7000 1.66278e-14 7.91616e-16
 15457.5000 1.66262e-14 7.85113e-16
 15462.4000 1.65938e-14 7.85211e-16
 15467.2000 1.66349e-14 7.86184e-16
 15472.1000 1.67580e-14 7.89569e-16
 15476.9000 1.67670e-14 7.94151e-16
 15481.8000 1.68528e-14 7.97457e-16
 15486.6000 1.68802e-14 7.98642e-16
 15491.5000 1.67809e-14 7.93232e-16
 15496.3000 1.68275e-14 7.98117e-16
 15501.2000 1.67893e-14 7.93635e-16
 15506.0000 1.67141e-14 7.89085e-16
 15510.8000 1.67529e-14 7.98968e-16
 15515.7000 1.67766e-14 8.00881e-16
 15520.5000 1.67364e-14 7.96045e-16
 15525.4000 1.67037e-14 7.88931e-16
 15530.2000 1.66251e-14 7.86976e-16
 15535.1000 1.65500e-14 7.89072e-16
 15539.9000 1.65993e-14 7.91419e-16
 15544.8000 1.65828e-14 7.82201e-16
 15549.6000 1.65472e-14 7.81980e-16
 15554.5000 1.66152e-14 7.89602e-16
 15559.3000 1.66566e-14 7.89156e-16
 15564.2000 1.66980e-14 7.88893e-16
 15569.0000 1.65527e-14 7.75877e-16
 15573.9000 1.64393e-14 7.72124e-16
 15578.7000 1.63598e-14 7.80014e-16
 15583.6000 1.63184e-14 7.76015e-16
 15588.4000 1.62993e-14 7.72139e-16
 15593.3000 1.62737e-14 7.76774e-16
 15598.1000 1.62120e-14 7.70031e-16
 15602.9000 1.60886e-14 7.68388e-16
 15607.8000 1.61496e-14 7.63761e-16
 15612.6000 1.62223e-14 7.71083e-16
 15617.5000 1.60465e-14 7.59850e-16
 15622.3000 1.60447e-14 7.65741e-16
 15627.2000 1.59047e-14 7.55231e-16
 15632.0000 1.57860e-14 7.50109e-16
 15636.9000 1.56869e-14 7.50731e-16
 15641.7000 1.56496e-14 7.47480e-16
 15646.6000 1.54775e-14 7.33454e-16
 15651.4000 1.52486e-14 7.27666e-16
 15656.3000 1.51775e-14 7.26473e-16
 15661.1000 1.52097e-14 7.23528e-16
 15666.0000 1.51167e-14 7.21394e-16
 15670.8000 1.51668e-14 7.18632e-16
 15675.7000 1.50762e-14 7.22740e-16
 15680.5000 1.49964e-14 7.16393e-16
 15685.3000 1.49012e-14 7.16290e-16
 15690.2000 1.48642e-14 7.15159e-16
 15695.0000 1.47738e-14 7.08100e-16
 15699.9000 1.46219e-14 7.04250e-16
 15704.7000 1.43966e-14 6.92408e-16
 15709.6000 1.43407e-14 6.92586e-16
 15714.4000 1.42106e-14 6.82256e-16
 15719.3000 1.41726e-14 6.81727e-16
 15724.1000 1.41945e-14 6.88377e-16
 15729.0000 1.42608e-14 6.92851e-16
 15733.8000 1.41561e-14 6.86918e-16
 15738.7000 1.42484e-14 6.82977e-16
 15743.5000 1.41825e-14 6.80101e-16
 15748.4000 1.40865e-14 6.73898e-16
 15753.2000 1.39383e-14 6.72788e-16
 15758.1000 1.38423e-14 6.62483e-16
 15762.9000 1.36370e-14 6.56900e-16
 15767.8000 1.37091e-14 6.60734e-16
 15772.6000 1.35521e-14 6.57230e-16
 15777.4000 1.34259e-14 6.48187e-16
 15782.3000 1.32276e-14 6.41199e-16
 15787.1000 1.31750e-14 6.36697e-16
 15792.0000 1.30300e-14 6.28890e-16
 15796.8000 1.29790e-14 6.25184e-16
 15801.7000 1.28794e-14 6.20885e-16
 15806.5000 1.29078e-14 6.26155e-16
 15811.4000 1.26373e-14 6.20226e-16
 15816.2000 1.26024e-14 6.06162e-16
 15821.1000 1.24493e-14 6.05668e-16
 15825.9000 1.22819e-14 5.94774e-16
 15830.8000 1.19435e-14 5.82477e-16
 15835.6000 1.19281e-14 5.85374e-16
 15840.5000 1.18790e-14 5.76503e-16
 15845.3000 1.18159e-14 5.71861e-16
 15850.2000 1.16836e-14 5.64649e-16
 15855.0000 1.17335e-14 5.66862e-16
 15859.9000 1.15422e-14 5.59210e-16
 15864.7000 1.16368e-14 5.63463e-16
 15869.5000 1.14307e-14 5.55307e-16
 15874.4000 1.15337e-14 5.59741e-16
 15879.2000 1.13124e-14 5.50882e-16
 15884.1000 1.13610e-14 5.53176e-16
 15888.9000 1.11209e-14 5.43501e-16
 15893.8000 1.11985e-14 5.47037e-16
 15898.6000 1.09316e-14 5.36336e-16
 15903.5000 1.10483e-14 5.41410e-16
 15908.3000 1.08513e-14 5.33501e-16
 15913.2000 1.09982e-14 5.39838e-16
 15918.0000 1.07986e-14 5.31747e-16
 15922.9000 1.09029e-14 5.36576e-16
 15927.7000 1.08674e-14 5.37430e-16
 15932.6000 1.09322e-14 5.40438e-16
 15937.4000 1.08118e-14 5.39558e-16
 15942.3000 1.08822e-14 5.28959e-16
 15947.1000 1.07480e-14 5.26461e-16
 15952.0000 1.07348e-14 5.26948e-16
 15956.8000 1.06714e-14 5.27099e-16
 15961.6000 1.07295e-14 5.25310e-16
 15966.5000 1.05638e-14 5.23370e-16
 15971.3000 1.06075e-14 5.25586e-16
 15976.2000 1.05892e-14 5.24672e-16
 15981.0000 1.05928e-14 5.22787e-16
 15985.9000 1.04561e-14 5.20634e-16
 15990.7000 1.06023e-14 5.19576e-16
 15995.6000 1.04322e-14 5.13487e-16
 16000.4000 1.05260e-14 5.20501e-16
 16005.3000 1.04953e-14 5.22015e-16
 16010.1000 1.06191e-14 5.29113e-16
 16015.0000 1.05164e-14 5.27084e-16
 16019.8000 1.06420e-14 5.28321e-16
 16024.7000 1.04777e-14 5.27583e-16
 16029.5000 1.05005e-14 5.18807e-16
 16034.4000 1.05799e-14 5.28807e-16
 16039.2000 1.08452e-14 5.35688e-16
 16044.0000 1.07620e-14 5.31541e-16
 16048.9000 1.08711e-14 5.26668e-16
 16053.7000 1.08369e-14 5.36778e-16
 16058.6000 1.08954e-14 5.32284e-16
 16063.4000 1.08389e-14 5.34946e-16
 16068.3000 1.08312e-14 5.32390e-16
 16073.1000 1.07793e-14 5.36887e-16
 16078.0000 1.07562e-14 5.21715e-16
 16082.8000 1.07368e-14 5.28256e-16
 16087.7000 1.07861e-14 5.24331e-16
 16092.5000 1.07292e-14 5.26732e-16
 16097.4000 1.08779e-14 5.32684e-16
 16102.2000 1.08983e-14 5.37844e-16
 16107.1000 1.08932e-14 5.33041e-16
 16111.9000 1.08437e-14 5.38476e-16
 16116.8000 1.07737e-14 5.22154e-16
 16121.6000 1.07683e-14 5.35433e-16
 16126.5000 1.08789e-14 5.25597e-16
 16131.3000 1.08729e-14 5.32401e-16
 16136.1000 1.09058e-14 5.22099e-16
 16141.0000 1.10091e-14 5.42118e-16
 16145.8000 1.13231e-14 5.44414e-16
 16150.7000 1.14403e-14 5.59173e-16
 16155.5000 1.13869e-14 5.51112e-16
 16160.4000 1.14760e-14 5.66606e-16
 16165.2000 1.14901e-14 5.57127e-16
 16170.1000 1.14516e-14 5.60552e-16
 16174.9000 1.13806e-14 5.51115e-16
 16179.8000 1.13221e-14 5.52197e-16
 16184.6000 1.13534e-14 5.48702e-16
 16189.5000 1.11976e-14 5.52255e-16
 16194.3000 1.12339e-14 5.39162e-16
 16199.2000 1.13738e-14 5.54827e-16
 16204.0000 1.14217e-14 5.44325e-16
 16208.9000 1.13788e-14 5.57063e-16
 16213.7000 1.14140e-14 5.46817e-16
 16218.6000 1.12932e-14 5.48882e-16
 16223.4000 1.13217e-14 5.42344e-16
 16228.2000 1.12490e-14 5.46408e-16
 16233.1000 1.11825e-14 5.39370e-16
 16237.9000 1.12135e-14 5.46317e-16
 16242.8000 1.12236e-14 5.41395e-16
 16247.6000 1.13405e-14 5.52341e-16
 16252.5000 1.13024e-14 5.46850e-16
 16257.3000 1.13220e-14 5.56398e-16
 16262.2000 1.14155e-14 5.52595e-16
 16267.0000 1.13628e-14 5.57128e-16
 16271.9000 1.13652e-14 5.53264e-16
 16276.7000 1.14348e-14 5.58322e-16
 16281.6000 1.13581e-14 5.37365e-16
 16286.4000 1.14402e-14 5.58771e-16
 16291.3000 1.15594e-14 5.53540e-16
 16296.1000 1.15094e-14 5.59189e-16
 16301.0000 1.15148e-14 5.49193e-16
 16305.8000 1.15136e-14 5.57556e-16
 16310.7000 1.14735e-14 5.49749e-16
 16315.5000 1.14678e-14 5.54991e-16
 16320.3000 1.15920e-14 5.52193e-16
 16325.2000 1.15799e-14 5.67349e-16
 16330.0000 1.16344e-14 5.52319e-16
 16334.9000 1.15943e-14 5.61506e-16
 16339.7000 1.16079e-14 5.50553e-16
 16344.6000 1.14875e-14 5.54203e-16
 16349.4000 1.15511e-14 5.60008e-16
 16354.3000 1.12179e-14 5.46828e-16
 16359.1000 1.15926e-14 5.62503e-16
 16364.0000 1.13860e-14 5.53298e-16
 16368.8000 1.16801e-14 5.65440e-16
 16373.7000 1.13942e-14 5.52908e-16
 16378.5000 1.16680e-14 5.64272e-16
 16383.4000 1.14034e-14 5.52848e-16
 16388.2000 1.16864e-14 5.64444e-16
 16393.1000 1.14295e-14 5.53146e-16
 16397.9000 1.17234e-14 5.65210e-16
 16402.7000 1.13547e-14 5.49249e-16
 16407.6000 1.17403e-14 5.65258e-16
 16412.4000 1.15314e-14 5.56163e-16
 16417.3000 1.17318e-14 5.64287e-16
 16422.1000 1.14091e-14 5.50294e-16
 16427.0000 1.16607e-14 5.60510e-16
 16431.8000 1.13790e-14 5.48417e-16
 16436.7000 1.17222e-14 5.62396e-16
 16441.5000 1.15016e-14 5.53019e-16
 16446.4000 1.17047e-14 5.61175e-16
 16451.2000 1.13407e-14 5.45629e-16
 16456.1000 1.16061e-14 5.56298e-16
 16460.9000 1.15238e-14 5.52535e-16
 16465.8000 1.15394e-14 5.61763e-16
 16470.6000 1.12909e-14 5.42705e-16
 16475.5000 1.13160e-14 5.53441e-16
 16480.3000 1.12257e-14 5.44930e-16
 16485.2000 1.12212e-14 5.35236e-16
 16490.0000 1.11389e-14 5.47140e-16
 16494.8000 1.10536e-14 5.37203e-16
 16499.7000 1.10030e-14 5.42523e-16
 16504.5000 1.10090e-14 5.29756e-16
 16509.4000 1.10527e-14 5.37079e-16
 16514.2000 1.10518e-14 5.32431e-16
 16519.1000 1.10518e-14 5.32299e-16
 16523.9000 1.11075e-14 5.35993e-16
 16528.8000 1.10339e-14 5.32754e-16
 16533.6000 1.10180e-14 5.31199e-16
 16538.5000 1.09918e-14 5.37625e-16
 16543.3000 1.10775e-14 5.30529e-16
 16548.2000 1.10292e-14 5.42601e-16
 16553.0000 1.09419e-14 5.24526e-16
 16557.9000 1.09291e-14 5.31775e-16
 16562.7000 1.10160e-14 5.31447e-16
 16567.6000 1.10094e-14 5.31366e-16
 16572.4000 1.10311e-14 5.33940e-16
 16577.3000 1.10607e-14 5.33942e-16
 16582.1000 1.11149e-14 5.35878e-16
 16586.9000 1.10615e-14 5.36156e-16
 16591.8000 1.11332e-14 5.38582e-16
 16596.6000 1.11522e-14 5.38140e-16
 16601.5000 1.11851e-14 5.40928e-16
 16606.3000 1.12280e-14 5.42460e-16
 16611.2000 1.13469e-14 5.44051e-16
 16616.0000 1.13372e-14 5.54853e-16
 16620.9000 1.13862e-14 5.45317e-16
 16625.7000 1.14561e-14 5.49606e-16
 16630.6000 1.14207e-14 5.40516e-16
 16635.4000 1.15563e-14 5.55917e-16
 16640.3000 1.16805e-14 5.57744e-16
 16645.1000 1.17253e-14 5.65776e-16
 16650.0000 1.17591e-14 5.63640e-16
 16654.8000 1.18576e-14 5.78437e-16
 16659.7000 1.20826e-14 5.80991e-16
 16664.5000 1.22524e-14 5.95763e-16
 16669.3000 1.24740e-14 5.98454e-16
 16674.2000 1.25194e-14 6.00766e-16
 16679.0000 1.25288e-14 5.94758e-16
 16683.9000 1.25374e-14 6.02452e-16
 16688.7000 1.26959e-14 6.04534e-16
 16693.6000 1.27242e-14 6.10409e-16
 16698.4000 1.28965e-14 6.12441e-16
 16703.3000 1.31342e-14 6.26252e-16
 16708.1000 1.33635e-14 6.32595e-16
 16713.0000 1.36936e-14 6.49896e-16
 16717.8000 1.40518e-14 6.65716e-16
 16722.7000 1.40153e-14 6.56128e-16
 16727.5000 1.42707e-14 6.73253e-16
 16732.4000 1.43734e-14 6.81043e-16
 16737.2000 1.45195e-14 6.77547e-16
 16742.1000 1.45820e-14 6.82488e-16
 16746.9000 1.47223e-14 6.85093e-16
 16751.8000 1.48060e-14 6.93617e-16
 16756.6000 1.49742e-14 6.93065e-16
 16761.4000 1.51543e-14 6.99568e-16
 16766.3000 1.52826e-14 7.14107e-16
 16771.1000 1.52249e-14 7.16298e-16
 16776.0000 1.54254e-14 7.21564e-16
 16780.8000 1.55421e-14 7.28204e-16
 16785.7000 1.56736e-14 7.28019e-16
 16790.5000 1.56009e-14 7.28446e-16
 16795.4000 1.57581e-14 7.35354e-16
 16800.2000 1.58846e-14 7.39222e-16
 16805.1000 1.60386e-14 7.43219e-16
 16809.9000 1.61748e-14 7.53379e-16
 16814.8000 1.65145e-14 7.69900e-16
 16819.6000 1.66600e-14 7.75006e-16
 16824.5000 1.68204e-14 7.73991e-16
 16829.3000 1.66543e-14 7.72937e-16
 16834.2000 1.65981e-14 7.68748e-16
 16839.0000 1.66895e-14 7.81604e-16
 16843.9000 1.72054e-14 7.95763e-16
 16848.7000 1.74188e-14 8.03996e-16
 16853.5000 1.75722e-14 8.11465e-16
 16858.4000 1.74240e-14 8.10309e-16
 16863.2000 1.75458e-14 8.18722e-16
 16868.1000 1.74216e-14 8.03637e-16
 16872.9000 1.75332e-14 8.16118e-16
 16877.8000 1.74794e-14 8.06998e-16
 16882.6000 1.75671e-14 8.05132e-16
 16887.5000 1.73565e-14 7.95099e-16
 16892.3000 1.72373e-14 8.00487e-16
 16897.2000 1.69137e-14 7.82445e-16
 16902.0000 1.70609e-14 7.95649e-16
 16906.9000 1.71324e-14 7.95619e-16
 16911.7000 1.73201e-14 8.08966e-16
 16916.6000 1.72105e-14 7.97780e-16
 16921.4000 1.71616e-14 7.97133e-16
 16926.3000 1.70905e-14 7.86086e-16
 16931.1000 1.72503e-14 8.05457e-16
 16936.0000 1.69158e-14 7.77151e-16
 16940.8000 1.68436e-14 7.80746e-16
 16945.6000 1.67154e-14 7.68440e-16
 16950.5000 1.67275e-14 7.74700e-16
 16955.3000 1.64098e-14 7.62316e-16
 16960.2000 1.63482e-14 7.58169e-16
 16965.0000 1.62055e-14 7.50049e-16
 16969.9000 1.62689e-14 7.63338e-16
 16974.7000 1.61865e-14 7.58025e-16
 16979.6000 1.62795e-14 7.63411e-16
 16984.4000 1.61056e-14 7.44393e-16
 16989.3000 1.60381e-14 7.49315e-16
 16994.1000 1.57712e-14 7.36299e-16
 16999.0000 1.55534e-14 7.27725e-16
 17003.8000 1.51792e-14 7.10283e-16
 17008.7000 1.51858e-14 7.09346e-16
 17013.5000 1.50529e-14 7.02138e-16
 17018.4000 1.51066e-14 7.07199e-16
 17023.2000 1.49359e-14 7.01917e-16
 17028.0000 1.50671e-14 7.13036e-16
 17032.9000 1.49407e-14 7.01817e-16
 17037.7000 1.48271e-14 7.01325e-16
 17042.6000 1.45958e-14 6.91949e-16
 17047.4000 1.45593e-14 6.89495e-16
 17052.3000 1.43551e-14 6.78459e-16
 17057.1000 1.43902e-14 6.74221e-16
 17062.0000 1.42597e-14 6.76309e-16
 17066.8000 1.42136e-14 6.72538e-16
 17071.7000 1.39761e-14 6.60450e-16
 17076.5000 1.38414e-14 6.61654e-16
 17081.4000 1.36410e-14 6.49095e-16
 17086.2000 1.36834e-14 6.48327e-16
 17091.1000 1.37515e-14 6.60079e-16
 17095.9000 1.37230e-14 6.57141e-16
 17100.8000 1.35385e-14 6.47051e-16
 17105.6000 1.36959e-14 6.51726e-16
 17110.5000 1.35898e-14 6.45314e-16
 17115.3000 1.36128e-14 6.53917e-16
 17120.1000 1.33669e-14 6.39327e-16
 17125.0000 1.33690e-14 6.40389e-16
 17129.8000 1.33793e-14 6.34874e-16
 17134.7000 1.32866e-14 6.38853e-16
 17139.5000 1.31957e-14 6.28159e-16
 17144.4000 1.33875e-14 6.34962e-16
 17149.2000 1.33208e-14 6.40761e-16
 17154.1000 1.33783e-14 6.33287e-16
 17158.9000 1.32564e-14 6.35097e-16
 17163.8000 1.34245e-14 6.42139e-16
 17168.6000 1.34975e-14 6.46546e-16
 17173.5000 1.35360e-14 6.41754e-16
 17178.3000 1.34377e-14 6.35443e-16
 17183.2000 1.34936e-14 6.39065e-16
 17188.0000 1.35331e-14 6.48152e-16
 17192.9000 1.37211e-14 6.47445e-16
 17197.7000 1.36216e-14 6.44887e-16
 17202.6000 1.36446e-14 6.53588e-16
 17207.4000 1.35910e-14 6.51878e-16
 17212.2000 1.37899e-14 6.61308e-16
 17217.1000 1.39898e-14 6.73331e-16
 17221.9000 1.41462e-14 6.72028e-16
 17226.8000 1.39572e-14 6.58281e-16
 17231.6000 1.41534e-14 6.68892e-16
 17236.5000 1.40774e-14 6.75988e-16
 17241.3000 1.41679e-14 6.78108e-16
 17246.2000 1.43445e-14 6.88364e-16
 17251.0000 1.45761e-14 6.94570e-16
 17255.9000 1.45582e-14 6.91311e-16
 17260.7000 1.46891e-14 6.93329e-16
 17265.6000 1.46879e-14 6.90458e-16
 17270.4000 1.48821e-14 6.99321e-16
 17275.3000 1.48943e-14 7.00609e-16
 17280.1000 1.50709e-14 7.13326e-16
 17285.0000 1.51622e-14 7.11789e-16
 17289.8000 1.54926e-14 7.27860e-16
 17294.7000 1.55247e-14 7.30187e-16
 17299.5000 1.55675e-14 7.28067e-16
 17304.3000 1.53904e-14 7.22898e-16
 17309.2000 1.55001e-14 7.30486e-16
 17314.0000 1.53525e-14 7.27911e-16
 17318.9000 1.54942e-14 7.33502e-16
 17323.7000 1.55846e-14 7.35023e-16
 17328.6000 1.60297e-14 7.54973e-16
 17333.4000 1.58830e-14 7.46482e-16
 17338.3000 1.58548e-14 7.37145e-16
 17343.1000 1.58118e-14 7.38314e-16
 17348.0000 1.59963e-14 7.45702e-16
 17352.8000 1.58834e-14 7.46053e-16
 17357.7000 1.61388e-14 7.65307e-16
 17362.5000 1.61534e-14 7.61369e-16
 17367.4000 1.63498e-14 7.69952e-16
 17372.2000 1.64618e-14 7.69129e-16
 17377.1000 1.68207e-14 7.80093e-16
 17381.9000 1.66473e-14 7.78065e-16
 17386.7000 1.65397e-14 7.74219e-16
 17391.6000 1.63922e-14 7.71370e-16
 17396.4000 1.67888e-14 7.86046e-16
 17401.3000 1.67829e-14 7.88423e-16
 17406.1000 1.69428e-14 7.98341e-16
 17411.0000 1.69294e-14 7.97260e-16
 17415.8000 1.71696e-14 8.02497e-16
 17420.7000 1.71316e-14 7.97770e-16
 17425.5000 1.72546e-14 8.03955e-16
 17430.4000 1.71965e-14 8.06502e-16
 17435.2000 1.71370e-14 7.99470e-16
 17440.1000 1.69250e-14 7.90457e-16
 17444.9000 1.68979e-14 7.90926e-16
 17449.8000 1.66717e-14 7.79222e-16
 17454.6000 1.67160e-14 7.85436e-16
 17459.5000 1.65192e-14 7.78572e-16
 17464.3000 1.64429e-14 7.80389e-16
 17469.2000 1.64200e-14 7.86614e-16
 17474.0000 1.68877e-14 7.98812e-16
 17478.8000 1.67674e-14 7.80588e-16
 17483.7000 1.66696e-14 7.74300e-16
 17488.5000 1.64414e-14 7.68607e-16
 17493.4000 1.64006e-14 7.65670e-16
 17498.2000 1.62888e-14 7.61899e-16
 17503.1000 1.63307e-14 7.68175e-16
 17507.9000 1.60617e-14 7.56967e-16
 17512.8000 1.62044e-14 7.65839e-16
 17517.6000 1.62309e-14 7.70149e-16
 17522.5000 1.63322e-14 7.64505e-16
 17527.3000 1.60983e-14 7.51742e-16
 17532.2000 1.60601e-14 7.52251e-16
 17537.0000 1.57682e-14 7.42938e-16
 17541.9000 1.57720e-14 7.50715e-16
 17546.7000 1.55249e-14 7.33535e-16
 17551.6000 1.56774e-14 7.48664e-16
 17556.4000 1.55904e-14 7.41233e-16
 17561.3000 1.56830e-14 7.48090e-16
 17566.1000 1.53659e-14 7.36733e-16
 17570.9000 1.55517e-14 7.50201e-16
 17575.8000 1.53674e-14 7.28206e-16
 17580.6000 1.54784e-14 7.31554e-16
 17585.5000 1.53139e-14 7.20984e-16
 17590.3000 1.53913e-14 7.22715e-16
 17595.2000 1.52749e-14 7.21656e-16
 17600.0000 1.52756e-14 7.29775e-16
 17604.9000 1.51683e-14 7.18073e-16
 17609.7000 1.53351e-14 7.33307e-16
 17614.6000 1.51868e-14 7.21760e-16
 17619.4000 1.52179e-14 7.29466e-16
 17624.3000 1.49094e-14 7.15776e-16
 17629.1000 1.50554e-14 7.17410e-16
 17634.0000 1.50785e-14 7.12740e-16
 17638.8000 1.51493e-14 7.15907e-16
 17643.7000 1.50060e-14 7.14246e-16
 17648.5000 1.48091e-14 7.16475e-16
 17653.4000 1.45020e-14 7.12736e-16
 17658.2000 1.46279e-14 7.22744e-16
 17663.0000 1.50142e-14 7.23328e-16
 17667.9000 1.53288e-14 7.31984e-16
 17672.7000 1.50787e-14 7.13717e-16
 17677.6000 1.50779e-14 7.19927e-16
 17682.4000 1.50108e-14 7.14237e-16
 17687.3000 1.51918e-14 7.24554e-16
 17692.1000 1.49595e-14 7.15256e-16
 17697.0000 1.50790e-14 7.31943e-16
 17701.8000 1.50045e-14 7.15589e-16
 17706.7000 1.52413e-14 7.34348e-16
 17711.5000 1.53541e-14 7.23834e-16
 17716.4000 1.55668e-14 7.41448e-16
 17721.2000 1.53371e-14 7.27091e-16
 17726.1000 1.54362e-14 7.35206e-16
 17730.9000 1.52152e-14 7.29268e-16
 17735.8000 1.52386e-14 7.39312e-16
 17740.6000 1.51385e-14 7.26154e-16
 17745.4000 1.53604e-14 7.44860e-16
 17750.3000 1.52296e-14 7.31409e-16
 17755.1000 1.52077e-14 7.39233e-16
 17760.0000 1.50952e-14 7.25834e-16
 17764.8000 1.54362e-14 7.51973e-16
 17769.7000 1.53799e-14 7.41352e-16
 17774.5000 1.54221e-14 7.50945e-16
 17779.4000 1.50681e-14 7.30387e-16
 17784.2000 1.51047e-14 7.49528e-16
 17789.1000 1.49340e-14 7.26157e-16
 17793.9000 1.52722e-14 7.35616e-16
 17798.8000 1.52248e-14 7.24514e-16
 17803.6000 1.53307e-14 7.50814e-16
 17808.5000 1.50664e-14 7.35630e-16
 17813.3000 1.50556e-14 7.40329e-16
 17818.2000 1.51385e-14 7.28268e-16
 17823.0000 1.53451e-14 7.35586e-16
 17827.9000 1.52639e-14 7.25237e-16
 17832.7000 1.51452e-14 7.34597e-16
 17837.5000 1.48078e-14 7.18953e-16
 17842.4000 1.47252e-14 7.42341e-16
 17847.2000 1.46736e-14 7.44204e-16
 17852.1000 1.48913e-14 7.53711e-16
 17856.9000 1.46919e-14 7.31240e-16
 17861.8000 1.46960e-14 7.28432e-16
 17866.6000 1.46693e-14 7.22729e-16
 17871.5000 1.48094e-14 7.33208e-16
 17876.3000 1.46096e-14 7.07785e-16
 17881.2000 1.45014e-14 7.04921e-16
 17886.0000 1.45737e-14 7.05926e-16
 17890.9000 1.46079e-14 7.10445e-16
 17895.7000 1.44409e-14 7.03754e-16
 17900.6000 1.42562e-14 7.05075e-16
 17905.4000 1.39119e-14 6.94363e-16
 17910.3000 1.38748e-14 7.01186e-16
 17915.1000 1.37978e-14 6.91337e-16
 17920.0000 1.38125e-14 7.03243e-16
 17924.8000 1.38234e-14 7.02225e-16
 17929.6000 1.35073e-14 6.92930e-16
 17934.5000 1.31849e-14 6.79413e-16
 17939.3000 1.33204e-14 6.88178e-16
 17944.2000 1.33072e-14 6.77888e-16
 17949.0000 1.33040e-14 6.79448e-16
 17953.9000 1.30438e-14 6.60381e-16
 17958.7000 1.31525e-14 6.75009e-16
 17963.6000 1.28865e-14 6.63178e-16
 17968.4000 1.28622e-14 6.69350e-16
 17973.3000 1.28190e-14 6.58053e-16
 17978.1000 1.28515e-14 6.58145e-16
 17983.0000 1.25869e-14 6.34359e-16
 17987.8000 1.23336e-14 6.26021e-16
 17992.7000 1.20230e-14 6.31312e-16
 17997.5000 1.19103e-14 6.63596e-16
 18002.4000 1.16234e-14 6.92098e-16
 18007.2000 1.12540e-14 7.11977e-16
 18012.1000 1.07696e-14 6.93005e-16
 18016.9000 1.06953e-14 6.70929e-16
 18021.7000 1.08735e-14 6.57365e-16
 18026.6000 1.09019e-14 6.33700e-16
 18031.4000 1.09702e-14 6.26909e-16
 18036.3000 1.08996e-14 6.00160e-16
 18041.1000 1.11204e-14 6.06766e-16
 18046.0000 1.11881e-14 5.98243e-16
 18050.8000 1.07902e-14 5.93173e-16
 18055.7000 1.06870e-14 6.22174e-16
 18060.5000 1.04324e-14 6.61213e-16
 18065.4000 1.02804e-14 6.68061e-16
 18070.2000 9.97885e-15 6.28752e-16
 18075.1000 1.01644e-14 6.01518e-16
 18079.9000 1.00411e-14 5.71728e-16
 18084.8000 1.00661e-14 5.62914e-16
 18089.6000 9.66946e-15 5.38440e-16
 18094.5000 9.72658e-15 5.47334e-16
 18099.3000 9.67275e-15 5.74736e-16
 18104.1000 9.32984e-15 5.79421e-16
 18109.0000 9.08502e-15 6.14510e-16
 18113.8000 8.91971e-15 6.14627e-16
 18118.7000 8.53242e-15 6.09838e-16
 18123.5000 8.64503e-15 6.26690e-16
 18128.4000 8.44341e-15 6.15175e-16
 18133.2000 8.94378e-15 5.87022e-16
 18138.1000 9.06362e-15 5.46148e-16
 18142.9000 8.99326e-15 5.30245e-16
 18147.8000 8.66306e-15 5.44231e-16
 18152.6000 8.69338e-15 5.93139e-16
 18157.5000 8.28099e-15 6.53390e-16
 18162.3000 8.35941e-15 6.51067e-16
 18167.2000 8.59359e-15 6.23788e-16
 18172.0000 8.78531e-15 5.75997e-16
 18176.9000 8.35678e-15 5.43363e-16
 18181.7000 8.23124e-15 5.36706e-16
 18186.6000 8.24066e-15 5.70916e-16
 18191.4000 8.57764e-15 6.05301e-16
 18196.2000 7.80255e-15 5.97150e-16
 18201.1000 7.85755e-15 6.88123e-16
 18205.9000 7.79387e-15 8.54898e-16
 18210.8000 7.85352e-15 1.18325e-15
 18215.6000 6.99082e-15 1.16273e-15
 18220.5000 6.80547e-15 9.23831e-16
 18225.3000 7.57372e-15 6.97348e-16
 18230.2000 8.35845e-15 5.85230e-16
 18235.0000 8.26361e-15 5.15686e-16
 18239.9000 8.25062e-15 4.97837e-16
 18244.7000 8.05375e-15 5.04332e-16
 18249.6000 8.21376e-15 5.45334e-16
 18254.4000 7.94883e-15 5.93920e-16
 18259.3000 7.77949e-15 6.65294e-16
 18264.1000 6.64378e-15 6.70079e-16
 18269.0000 7.27926e-15 6.98854e-16
 18273.8000 7.39449e-15 6.45765e-16
 18278.7000 7.54680e-15 6.73600e-16
 18283.5000 7.58359e-15 7.82192e-16
 18288.3000 7.61871e-15 8.96182e-16
 18293.2000 6.79710e-15 9.01387e-16
 18298.0000 6.26879e-15 8.39931e-16
 18302.9000 6.32113e-15 8.70265e-16
 18307.7000 6.96551e-15 1.04806e-15
 18312.6000 6.34916e-15 9.02470e-16
 18317.4000 7.99378e-15 1.07183e-15
 18322.3000 6.99427e-15 8.47321e-16
 18327.1000 7.80628e-15 9.11221e-16
 18332.0000 7.33916e-15 7.60078e-16
 18336.8000 8.21156e-15 8.44818e-16
 18341.7000 7.59519e-15 7.94328e-16
 18346.5000 8.66429e-15 1.02021e-15
 18351.4000 6.66813e-15 1.05888e-15
 18356.2000 8.00550e-15 2.29473e-15
 18361.1000 3.67226e-15 1.79297e-15
 18365.9000 5.01412e-15 2.24463e-15
 18370.7000 3.59296e-15 1.36251e-15
 18375.6000 3.09066e-14 4.37641e-14
 18380.4000 1.05911e-14 1.05371e-14
 18385.3000 6.87207e-15 1.81960e-15
 18390.1000 5.61442e-15 1.21311e-15
 18395.0000 6.50359e-15 1.46163e-15
 18399.8000 1.08727e-14 3.47411e-15
 18404.7000 6.74084e-15 2.14204e-15
 18409.5000 4.74466e-15 1.73873e-15
 18414.4000 7.34212e-15 3.80147e-15
 18419.2000 5.05930e-15 2.26875e-15
 18424.1000 6.14934e-15 1.75116e-15
 18428.9000 6.71464e-15 1.24104e-15
 18433.8000 7.94762e-15 1.17533e-15
 18438.6000 8.17849e-15 9.29457e-16
 18443.5000 8.85300e-15 8.20462e-16
 18448.3000 8.73393e-15 7.03752e-16
 18453.2000 8.56320e-15 6.80111e-16
 18458.0000 9.13835e-15 8.16118e-16
 18462.8000 9.03584e-15 9.60483e-16
 18467.7000 9.01122e-15 1.35592e-15
 18472.5000 7.85225e-15 2.59020e-15
 18477.4000 3.49037e-15 3.86207e-15
 18482.2000 8.06648e-16 2.28950e-15
 18487.1000 3.76364e-15 2.15610e-15
 18491.9000 6.26368e-15 1.63051e-15
 18496.8000 6.43512e-15 1.23439e-15
 18501.6000 6.88449e-15 1.17334e-15
 18506.5000 7.57462e-15 1.15775e-15
 18511.3000 7.71208e-15 9.12232e-16
 18516.2000 7.67354e-15 7.69136e-16
 18521.0000 7.81161e-15 7.51958e-16
 18525.9000 9.08138e-15 9.77087e-16
 18530.7000 9.63969e-15 1.23824e-15
 18535.6000 6.52070e-15 1.30970e-15
 18540.4000 4.48311e-15 1.91432e-15
 18545.3000 5.46986e-15 1.47784e-15
 18550.1000 7.28996e-15 1.17137e-15
 18554.9000 7.81751e-15 1.01560e-15
 18559.8000 7.11301e-15 9.38165e-16
 18564.6000 8.20010e-15 1.29110e-15
 18569.5000 6.76040e-15 1.31890e-15
 18574.3000 6.55735e-15 1.38954e-15
 18579.2000 8.34686e-15 1.39301e-15
 18584.0000 8.12455e-15 1.13143e-15
 18588.9000 7.37000e-15 1.00115e-15
 18593.7000 8.51243e-15 1.46900e-15
 18598.6000 7.06987e-15 1.61426e-15
 18603.4000 1.54904e-14 8.33341e-15
 18608.3000 9.92754e-15 3.18757e-15
 18613.1000 7.45409e-15 8.67762e-16
 18618.0000 7.48065e-15 7.17732e-16
 18622.8000 7.71715e-15 6.78209e-16
 18627.7000 8.13008e-15 7.18001e-16
 18632.5000 8.54607e-15 8.25079e-16
 18637.4000 7.98156e-15 8.67048e-16
 18642.2000 7.94717e-15 1.03947e-15
 18647.0000 6.67329e-15 9.33348e-16
 18651.9000 6.35864e-15 8.01331e-16
 18656.7000 6.72778e-15 6.72438e-16
 18661.6000 7.25313e-15 6.55764e-16
 18666.4000 7.32463e-15 6.75028e-16
 18671.3000 8.36458e-15 8.73965e-16
 18676.1000 9.78568e-15 1.26096e-15
 18681.0000 6.97536e-15 1.47606e-15
 18685.8000 1.30972e-14 9.27742e-15
 18690.7000 7.40827e-15 5.64685e-15
 18695.5000      NaN      NaN
 18701.4000      NaN      NaN
 18707.9000 3.04046e-15 1.77192e-15
 18714.4000 3.32284e-15 1.90893e-15
 18720.9000 2.09587e-15 1.99590e-15
 18727.3000 1.59642e-15 2.11555e-15
 18733.8000 8.16956e-16 2.82608e-15
 18740.3000 2.57173e-15 3.82012e-15
 18746.8000 7.05145e-15 5.37116e-15
 18753.2000 5.57689e-15 3.29682e-15
 18759.7000 4.13023e-15 1.85467e-15
 18766.2000 2.81620e-15 8.88179e-16
 18772.6000 3.99914e-15 6.98799e-16
 18779.1000 4.68655e-15 5.52670e-16
 18785.6000 4.95531e-15 4.85773e-16
 18792.1000 5.36385e-15 4.83262e-16
 18798.5000 6.05172e-15 5.53102e-16
 18805.0000 5.80265e-15 5.76361e-16
 18811.5000 5.29403e-15 5.32593e-16
 18817.9000 5.20606e-15 4.67479e-16
 18824.4000 5.49885e-15 4.89088e-16
 18830.9000 5.49003e-15 5.15346e-16
 18837.4000 5.86521e-15 6.28384e-16
 18843.8000 5.15194e-15 6.17946e-16
 18850.3000 4.43231e-15 5.11446e-16
 18856.8000 4.51648e-15 4.74123e-16
 18863.3000 4.63825e-15 4.44298e-16
 18869.7000 4.70083e-15 3.90692e-16
 18876.2000 4.98130e-15 3.78514e-16
 18882.7000 5.29141e-15 3.93437e-16
 18889.1000 5.55413e-15 4.45457e-16
 18895.6000 5.76750e-15 5.34344e-16
 18902.1000 5.71059e-15 6.73846e-16
 18908.6000 4.63075e-15 6.62174e-16
 18915.0000 4.09160e-15 6.38722e-16
 18921.5000 3.86086e-15 6.45884e-16
 18928.0000 3.48033e-15 6.04324e-16
 18934.5000 3.40986e-15 4.62451e-16
 18940.9000 3.96026e-15 3.83729e-16
 18947.4000 4.36880e-15 3.59056e-16
 18953.9000 4.53761e-15 3.55864e-16
 18960.3000 4.92481e-15 3.88223e-16
 18966.8000 5.18315e-15 4.39311e-16
 18973.3000 5.71922e-15 5.70978e-16
 18979.8000 5.83200e-15 7.53484e-16
 18986.2000 5.71275e-15 1.13591e-15
 18992.7000 3.19781e-15 1.25050e-15
 18999.2000 2.26441e-15 8.60552e-16
 19005.6000 2.72878e-15 6.59816e-16
 19012.1000 3.67741e-15 6.45938e-16
 19018.6000 3.38678e-15 5.84667e-16
 19025.1000 3.93213e-15 6.48067e-16
 19031.5000 3.49282e-15 5.88636e-16
 19038.0000 3.39815e-15 5.92900e-16
 19044.5000 4.15014e-15 8.13416e-16
 19051.0000 4.30635e-15 9.49998e-16
 19057.4000 3.20369e-15 9.96124e-16
 19063.9000 3.36249e-15 6.60388e-16
 19070.4000 3.82190e-15 4.76135e-16
 19076.8000 3.93997e-15 3.97020e-16
 19083.3000 4.00753e-15 3.71867e-16
 19089.8000 4.17457e-15 3.88236e-16
 19096.3000 4.52623e-15 4.33872e-16
 19102.7000 4.49045e-15 4.92193e-16
 19109.2000 4.33101e-15 5.66274e-16
 19115.7000 3.87137e-15 6.57212e-16
 19122.1000 3.35511e-15 6.97109e-16
 19128.6000 2.97661e-15 6.57944e-16
 19135.1000 3.34459e-15 7.97891e-16
 19141.6000 3.96342e-15 6.40482e-16
 19148.0000 3.64799e-15 4.71132e-16
 19154.5000 3.73674e-15 4.51733e-16
 19161.0000 3.82596e-15 4.13757e-16
 19167.5000 4.15183e-15 3.72935e-16
 19173.9000 4.19111e-15 3.11710e-16
 19180.4000 4.37537e-15 3.09057e-16
 19186.9000 4.77114e-15 3.59324e-16
 19193.3000 5.20396e-15 4.58684e-16
 19199.8000 5.13104e-15 5.57016e-16
 19206.3000 4.55975e-15 5.71134e-16
 19212.8000 4.32696e-15 3.93308e-16
 19219.2000 4.28593e-15 3.18027e-16
 19225.7000 4.50015e-15 3.20507e-16
 19232.2000 4.75119e-15 3.47323e-16
 19238.7000 4.76122e-15 3.60471e-16
 19245.1000 4.45287e-15 3.24061e-16
 19251.6000 4.60134e-15 3.15305e-16
 19258.1000 4.75262e-15 3.21348e-16
 19264.5000 5.16059e-15 3.79426e-16
 19271.0000 5.07688e-15 4.19153e-16
 19277.5000 4.71706e-15 4.41450e-16
 19284.0000 4.37955e-15 3.78918e-16
 19290.4000 4.56333e-15 3.69742e-16
 19296.9000 4.74217e-15 3.77842e-16
 19303.4000 4.75063e-15 4.02777e-16
 19309.8000 4.59856e-15 3.82812e-16
 19316.3000 4.80819e-15 3.64773e-16
 19322.8000 4.97938e-15 3.38255e-16
 19329.3000 5.03343e-15 3.33964e-16
 19335.7000 5.11933e-15 3.30210e-16
 19342.2000 5.23827e-15 3.27172e-16
 19348.7000 5.37383e-15 3.22486e-16
 19355.2000 5.44603e-15 3.38166e-16
 19361.6000 5.52509e-15 3.48886e-16
 19368.1000 5.53458e-15 3.62593e-16
 19374.6000 5.51500e-15 3.69547e-16
 19381.0000 5.41401e-15 3.83239e-16
 19387.5000 5.36313e-15 3.89691e-16
 19394.0000 5.43645e-15 3.91230e-16
 19400.5000 5.57578e-15 3.72668e-16
 19406.9000 5.55541e-15 3.52681e-16
 19413.4000 5.79145e-15 3.38378e-16
 19419.9000 6.12989e-15 3.37499e-16
 19426.4000 6.51226e-15 3.53627e-16
 19432.8000 6.68910e-15 3.77827e-16
 19439.3000 6.89410e-15 4.05626e-16
 19445.8000 6.75256e-15 4.10144e-16
 19452.2000 6.66498e-15 3.84377e-16
 19458.7000 6.69872e-15 3.73170e-16
 19465.2000 6.96807e-15 3.82571e-16
 19471.7000 6.86706e-15 3.81358e-16
 19478.1000 6.82360e-15 3.83947e-16
 19484.6000 6.61284e-15 3.72381e-16
 19491.1000 6.81332e-15 3.77662e-16
 19497.5000 7.16033e-15 3.87771e-16
 19504.0000 7.45453e-15 3.89818e-16
 19510.5000 7.56076e-15 3.90884e-16
 19517.0000 7.79914e-15 4.04792e-16
 19523.4000 7.86080e-15 4.16580e-16
 19529.9000 7.84009e-15 4.29416e-16
 19536.4000 7.91784e-15 4.43557e-16
 19542.9000 7.77745e-15 4.39310e-16
 19549.3000 7.51706e-15 4.24493e-16
 19555.8000 7.69844e-15 4.48178e-16
 19562.3000 7.80248e-15 4.54447e-16
 19568.7000 7.82958e-15 4.50622e-16
 19575.2000 7.96116e-15 4.57429e-16
 19581.7000 8.17295e-15 4.67572e-16
 19588.2000 8.29792e-15 4.54968e-16
 19594.6000 8.42139e-15 4.34209e-16
 19601.1000 8.72596e-15 4.36302e-16
 19607.6000 8.99556e-15 4.44041e-16
 19614.1000 9.13721e-15 4.49320e-16
 19620.5000 9.26929e-15 4.65794e-16
 19627.0000 9.19161e-15 4.65910e-16
 19633.5000 9.17110e-15 4.70754e-16
 19639.9000 9.19907e-15 4.62876e-16
 19646.4000 9.43802e-15 4.71377e-16
 19652.9000 9.36916e-15 4.50048e-16
 19659.4000 9.74072e-15 4.65346e-16
 19665.8000 9.77118e-15 4.60721e-16
 19672.3000 9.86775e-15 4.62376e-16
 19678.8000 9.93481e-15 4.64981e-16
 19685.2000 1.01247e-14 4.69108e-16
 19691.7000 1.01819e-14 4.67797e-16
 19698.2000 1.03987e-14 4.74546e-16
 19704.7000 1.04023e-14 4.77287e-16
 19711.1000 1.05273e-14 4.90279e-16
 19717.6000 1.04612e-14 4.82334e-16
 19724.1000 1.05384e-14 4.77460e-16
 19730.6000 1.05665e-14 4.78470e-16
 19737.0000 1.06904e-14 4.81148e-16
 19743.5000 1.07437e-14 4.85477e-16
 19750.0000 1.07810e-14 4.79699e-16
 19756.4000 1.07934e-14 4.77209e-16
 19762.9000 1.09407e-14 4.75343e-16
 19769.4000 1.11309e-14 4.84971e-16
 19775.9000 1.12966e-14 4.91690e-16
 19782.3000 1.13527e-14 5.02609e-16
 19788.8000 1.12972e-14 5.03636e-16
 19795.3000 1.11306e-14 5.07381e-16
 19801.8000 1.09948e-14 4.89550e-16
 19808.2000 1.11193e-14 4.86355e-16
 19814.7000 1.12304e-14 4.79419e-16
 19821.2000 1.13550e-14 4.87012e-16
 19827.6000 1.13396e-14 4.90160e-16
 19834.1000 1.13171e-14 4.85819e-16
 19840.6000 1.13683e-14 4.99389e-16
 19847.1000 1.14437e-14 5.01298e-16
 19853.5000 1.14320e-14 5.00934e-16
 19860.0000 1.13981e-14 5.08505e-16
 19866.5000 1.12631e-14 4.96666e-16
 19872.9000 1.12139e-14 4.92679e-16
 19879.4000 1.12104e-14 4.79284e-16
 19885.9000 1.13165e-14 4.94700e-16
 19892.4000 1.11527e-14 4.85309e-16
 19898.8000 1.11686e-14 4.99108e-16
 19905.3000 1.10817e-14 4.87943e-16
 19911.8000 1.11122e-14 4.75351e-16
 19918.3000 1.09726e-14 4.72970e-16
 19924.7000 1.10775e-14 4.70637e-16
 19931.2000 1.10589e-14 4.75622e-16
 19937.7000 1.09888e-14 4.78112e-16
 19944.1000 1.08993e-14 4.81951e-16
 19950.6000 1.09114e-14 4.79677e-16
 19957.1000 1.08011e-14 4.81299e-16
 19963.6000 1.07937e-14 4.80402e-16
 19970.0000 1.06028e-14 4.84062e-16
 19976.5000 1.04778e-14 4.81581e-16
 19983.0000 1.02826e-14 4.79778e-16
 19989.4000 1.02529e-14 4.81540e-16
 19995.9000 9.88608e-15 4.78646e-16
 20002.4000 9.74556e-15 4.78276e-16
 20008.9000 9.74438e-15 4.95116e-16
 20015.3000 9.28855e-15 4.81951e-16
 20021.8000 8.95920e-15 4.86920e-16
 20028.3000 8.84515e-15 4.82538e-16
 20034.8000 8.93920e-15 4.97456e-16
 20041.2000 8.82247e-15 4.91695e-16
 20047.7000 8.64292e-15 4.84579e-16
 20054.2000 8.75662e-15 4.84603e-16
 20060.6000 8.56005e-15 4.58359e-16
 20067.1000 8.82580e-15 4.54415e-16
 20073.6000 8.91435e-15 4.48806e-16
 20080.1000 8.90585e-15 4.25665e-16
 20086.5000 8.88476e-15 4.27099e-16
 20093.0000 8.88503e-15 4.23264e-16
 20099.5000 8.58703e-15 4.23530e-16
 20106.0000 8.54443e-15 4.27257e-16
 20112.4000 8.26240e-15 4.25575e-16
 20118.9000 8.37179e-15 4.31364e-16
 20125.4000 8.25134e-15 4.28203e-16
 20131.8000 8.23449e-15 4.21813e-16
 20138.3000 7.91334e-15 4.05820e-16
 20144.8000 8.06826e-15 4.10407e-16
 20151.3000 7.97982e-15 4.07045e-16
 20157.7000 7.93886e-15 4.02320e-16
 20164.2000 7.84193e-15 3.98831e-16
 20170.7000 7.79022e-15 3.90739e-16
 20177.1000 7.70260e-15 3.87553e-16
 20183.6000 7.72306e-15 3.81697e-16
 20190.1000 7.58647e-15 3.69336e-16
 20196.6000 7.64797e-15 3.68277e-16
 20203.0000 7.54712e-15 3.60200e-16
 20209.5000 7.54124e-15 3.56769e-16
 20216.0000 7.50173e-15 3.53317e-16
 20222.5000 7.51599e-15 3.49536e-16
 20228.9000 7.35906e-15 3.45384e-16
 20235.4000 7.46722e-15 3.46275e-16
 20241.9000 7.28539e-15 3.32194e-16
 20248.3000 7.28308e-15 3.32649e-16
 20254.8000 7.11731e-15 3.25365e-16
 20261.3000 7.17948e-15 3.33177e-16
 20267.8000 6.97175e-15 3.14337e-16
 20274.2000 6.92070e-15 3.20372e-16
 20280.7000 6.77286e-15 3.08113e-16
 20287.2000 6.80542e-15 3.09577e-16
 20293.7000 6.69627e-15 3.05433e-16
 20300.1000 6.68639e-15 3.08872e-16
 20306.6000 6.61665e-15 3.00741e-16
 20313.1000 6.56705e-15 2.99146e-16
 20319.5000 6.44459e-15 2.98225e-16
 20326.0000 6.38358e-15 2.92575e-16
 20332.5000 6.28506e-15 2.88881e-16
 20339.0000 6.22815e-15 2.88410e-16
 20345.4000 6.08744e-15 2.76889e-16
 20351.9000 6.08856e-15 2.74162e-16
 20358.4000 6.05325e-15 2.74588e-16
 20364.8000 5.98943e-15 2.71433e-16
 20371.3000 5.93930e-15 2.70198e-16
 20377.8000 5.92541e-15 2.78072e-16
 20384.3000 5.81438e-15 2.62571e-16
 20390.7000 5.73185e-15 2.66383e-16
 20397.2000 5.60096e-15 2.60959e-16
 20403.7000 5.47255e-15 2.52734e-16
 20410.2000 5.44851e-15 2.52389e-16
 20416.6000 5.35595e-15 2.52776e-16
 20423.1000 5.30155e-15 2.51788e-16
 20429.6000 5.26046e-15 2.50929e-16
 20436.0000 5.22390e-15 2.49636e-16
 20442.5000 5.23381e-15 2.47104e-16
 20449.0000 5.25156e-15 2.50105e-16
 20455.5000 5.14888e-15 2.46252e-16
 20461.9000 5.08968e-15 2.35270e-16
 20468.4000 5.00091e-15 2.37675e-16
 20474.9000 5.00856e-15 2.39772e-16
 20481.4000 4.91854e-15 2.37660e-16
 20487.8000 4.88653e-15 2.36136e-16
 20494.3000 4.82193e-15 2.37033e-16
 20500.8000 4.84646e-15 2.37397e-16
 20507.2000 4.78109e-15 2.41116e-16
 20513.7000 4.75411e-15 2.37726e-16
 20520.2000 4.71640e-15 2.38848e-16
 20526.7000 4.68183e-15 2.34344e-16
 20533.1000 4.56585e-15 2.32797e-16
 20539.6000 4.59590e-15 2.35061e-16
 20546.1000 4.48358e-15 2.30978e-16
 20552.5000 4.50531e-15 2.31918e-16
 20559.0000 4.46265e-15 2.29363e-16
 20565.5000 4.48867e-15 2.30879e-16
 20572.0000 4.49197e-15 2.29035e-16
 20578.4000 4.52827e-15 2.27136e-16
 20584.9000 4.50483e-15 2.22552e-16
 20591.4000 4.61579e-15 2.26580e-16
 20597.9000 4.58531e-15 2.22098e-16
 20604.3000 4.61792e-15 2.24846e-16
 20610.8000 4.54853e-15 2.24999e-16
 20617.3000 4.60670e-15 2.24576e-16
 20623.7000 4.57565e-15 2.27009e-16
 20630.2000 4.61019e-15 2.30764e-16
 20636.7000 4.54018e-15 2.27185e-16
 20643.2000 4.61728e-15 2.28597e-16
 20649.6000 4.62483e-15 2.32750e-16
 20656.1000 4.68855e-15 2.32584e-16
 20662.6000 4.66014e-15 2.31380e-16
 20669.1000 4.72464e-15 2.31333e-16
 20675.5000 4.71278e-15 2.31264e-16
 20682.0000 4.79960e-15 2.36202e-16
 20688.5000 4.77304e-15 2.32771e-16
 20694.9000 4.86651e-15 2.37543e-16
 20701.4000 4.86570e-15 2.34046e-16
 20707.9000 4.96015e-15 2.40922e-16
 20714.4000 4.91185e-15 2.33560e-16
 20720.8000 5.01553e-15 2.39257e-16
 20727.3000 4.95526e-15 2.33897e-16
 20733.8000 5.06263e-15 2.38976e-16
 20740.2000 5.09223e-15 2.42326e-16
 20746.7000 5.18250e-15 2.48368e-16
 20753.2000 5.20275e-15 2.43900e-16
 20759.7000 5.29820e-15 2.48246e-16
 20766.1000 5.20398e-15 2.40036e-16
 20772.6000 5.27753e-15 2.43712e-16
 20779.1000 5.37732e-15 2.49261e-16
 20785.6000 5.48198e-15 2.58270e-16
 20792.0000 5.45062e-15 2.51837e-16
 20798.5000 5.50216e-15 2.57598e-16
 20805.0000 5.53040e-15 2.58969e-16
 20811.4000 5.63803e-15 2.59222e-16
 20817.9000 5.59485e-15 2.58705e-16
 20824.4000 5.71557e-15 2.58769e-16
 20830.9000 5.70861e-15 2.58301e-16
 20837.3000 5.75569e-15 2.57791e-16
 20843.8000 5.68552e-15 2.57899e-16
 20850.3000 5.80803e-15 2.73195e-16
 20856.8000 5.80894e-15 2.60803e-16
 20863.2000 5.88521e-15 2.66844e-16
 20869.7000 5.85229e-15 2.70182e-16
 20876.2000 5.98513e-15 2.73238e-16
 20882.6000 5.95122e-15 2.76624e-16
 20889.1000 6.01772e-15 2.76266e-16
 20895.6000 5.95025e-15 2.58644e-16
 20902.1000 5.99748e-15 2.78663e-16
 20908.5000 5.90855e-15 2.61136e-16
 20915.0000 6.00930e-15 2.62295e-16
 20921.5000 5.98934e-15 2.64941e-16
 20927.9000 6.10265e-15 2.83755e-16
 20934.4000 6.09627e-15 2.64439e-16
 20940.9000 6.18260e-15 2.84652e-16
 20947.4000 6.08605e-15 2.70293e-16
 20953.8000 6.20990e-15 2.71221e-16
 20960.3000 6.12729e-15 2.74029e-16
 20966.8000 6.14610e-15 2.72965e-16
 20973.3000 6.13229e-15 2.73386e-16
 20979.7000 6.17272e-15 2.67842e-16
 20986.2000 6.10566e-15 2.69529e-16
 20992.7000 6.14275e-15 2.67141e-16
 20999.1000 6.10869e-15 2.71383e-16
 21005.6000 6.14690e-15 2.67193e-16
 21012.1000 6.03030e-15 2.67661e-16
 21018.6000 6.10105e-15 2.67653e-16
 21025.0000 6.01211e-15 2.72710e-16
 21031.5000 6.08357e-15 2.71857e-16
 21038.0000 6.04063e-15 2.76814e-16
 21044.4000 6.08794e-15 2.73659e-16
 21050.9000 6.04709e-15 2.74496e-16
 21057.4000 6.05745e-15 2.71947e-16
 21063.9000 6.01793e-15 2.74578e-16
 21070.3000 5.99866e-15 2.71228e-16
 21076.8000 5.96208e-15 2.72415e-16
 21083.3000 5.96859e-15 2.69039e-16
 21089.8000 5.93442e-15 2.71844e-16
 21096.2000 5.95685e-15 2.68217e-16
 21102.7000 5.93787e-15 2.69856e-16
 21109.2000 5.88993e-15 2.64822e-16
 21115.6000 5.82461e-15 2.68396e-16
 21122.1000 5.84482e-15 2.64798e-16
 21128.6000 5.87487e-15 2.68494e-16
 21135.1000 5.86412e-15 2.65739e-16
 21141.5000 5.83692e-15 2.71513e-16
 21148.0000 5.80406e-15 2.65094e-16
 21154.5000 5.75820e-15 2.45978e-16
 21161.0000 5.79380e-15 2.63341e-16
 21167.4000 5.76408e-15 2.65611e-16
 21173.9000 5.72490e-15 2.59539e-16
 21180.4000 5.68652e-15 2.60178e-16
 21186.8000 5.69100e-15 2.54973e-16
 21193.3000 5.71729e-15 2.57069e-16
 21199.8000 5.69170e-15 2.56301e-16
 21206.3000 5.74103e-15 2.63181e-16
 21212.7000 5.72437e-15 2.60105e-16
 21219.2000 5.69761e-15 2.65388e-16
 21225.7000 5.61434e-15 2.60217e-16
 21232.1000 5.65798e-15 2.61935e-16
 21238.6000 5.62192e-15 2.56530e-16
 21245.1000 5.61638e-15 2.58238e-16
 21251.6000 5.60607e-15 2.55600e-16
 21258.0000 5.70376e-15 2.59399e-16
 21264.5000 5.61505e-15 2.57071e-16
 21271.0000 5.62484e-15 2.57570e-16
 21277.5000 5.56799e-15 2.51910e-16
 21283.9000 5.66484e-15 2.56453e-16
 21290.4000 5.58140e-15 2.55574e-16
 21296.9000 5.64503e-15 2.62100e-16
 21303.3000 5.58676e-15 2.58490e-16
 21309.8000 5.68370e-15 2.61383e-16
 21316.3000 5.53053e-15 2.58197e-16
 21322.8000 5.57572e-15 2.60886e-16
 21329.2000 5.54684e-15 2.56595e-16
 21335.7000 5.59802e-15 2.60724e-16
 21342.2000 5.55148e-15 2.56951e-16
 21348.7000 5.59282e-15 2.57995e-16
 21355.1000 5.50913e-15 2.54883e-16
 21361.6000 5.54843e-15 2.56060e-16
 21368.1000 5.49442e-15 2.53938e-16
 21374.5000 5.56850e-15 2.57248e-16
 21381.0000 5.48330e-15 2.53483e-16
 21387.5000 5.57025e-15 2.55308e-16
 21394.0000 5.46941e-15 2.52017e-16
 21400.4000 5.51299e-15 2.53435e-16
 21406.9000 5.49112e-15 2.51711e-16
 21413.4000 5.51442e-15 2.53890e-16
 21419.8000 5.43350e-15 2.50816e-16
 21426.3000 5.50199e-15 2.52045e-16
 21432.8000 5.40242e-15 2.47453e-16
 21439.3000 5.43458e-15 2.49110e-16
 21445.7000 5.31264e-15 2.46811e-16
 21452.2000 5.34467e-15 2.47910e-16
 21458.7000 5.24668e-15 2.45090e-16
 21465.2000 5.30307e-15 2.46006e-16
 21471.6000 5.25655e-15 2.41627e-16
 21478.1000 5.31199e-15 2.42028e-16
 21484.6000 5.20080e-15 2.39381e-16
 21491.0000 5.20965e-15 2.38426e-16
 21497.5000 5.11740e-15 2.32547e-16
 21504.0000 5.13402e-15 2.30615e-16
 21510.5000 4.99073e-15 2.25346e-16
 21516.9000 5.04742e-15 2.25586e-16
 21523.4000 4.99796e-15 2.23425e-16
 21529.9000 5.05004e-15 2.25834e-16
 21536.4000 4.97601e-15 2.24189e-16
 21542.8000 4.96711e-15 2.24051e-16
 21549.3000 4.87361e-15 2.23015e-16
 21555.8000 4.93658e-15 2.23854e-16
 21562.2000 4.86288e-15 2.22793e-16
 21568.7000 4.85023e-15 2.21835e-16
 21575.2000 4.78106e-15 2.19381e-16
 21581.7000 4.79762e-15 2.16598e-16
 21588.1000 4.71952e-15 2.10994e-16
 21594.6000 4.73260e-15 2.24154e-16
 21601.1000 4.58927e-15 2.07237e-16
 21607.5000 4.60275e-15 2.06019e-16
 21614.0000 4.48747e-15 2.02036e-16
 21620.5000 4.46269e-15 2.11725e-16
 21627.0000 4.37721e-15 2.04916e-16
 21633.4000 4.36387e-15 1.99997e-16
 21639.9000 4.29332e-15 1.96830e-16
 21646.4000 4.38757e-15 2.07378e-16
 21652.9000 4.29751e-15 2.06238e-16
 21659.3000 4.28255e-15 2.05699e-16
 21665.8000 4.21689e-15 2.02777e-16
 21672.3000 4.18707e-15 2.01426e-16
 21678.7000 4.10488e-15 1.97900e-16
 21685.2000 4.08550e-15 1.96938e-16
 21691.7000 3.92520e-15 1.85972e-16
 21698.2000 3.93666e-15 1.88680e-16
 21704.6000 3.92663e-15 1.90235e-16
 21711.1000 3.93249e-15 1.90479e-16
 21717.6000 3.79734e-15 1.77078e-16
 21724.0000 3.82339e-15 1.86366e-16
 21730.5000 3.74436e-15 1.84432e-16
 21737.0000 3.72225e-15 1.82183e-16
 21743.5000 3.64625e-15 1.69873e-16
 21749.9000 3.68009e-15 1.79600e-16
 21756.4000 3.58003e-15 1.67803e-16
 21762.9000 3.56215e-15 1.76822e-16
 21769.4000 3.50022e-15 1.64987e-16
 21775.8000 3.55881e-15 1.75086e-16
 21782.3000 3.43741e-15 1.62722e-16
 21788.8000 3.44214e-15 1.70815e-16
 21795.2000 3.35230e-15 1.59554e-16
 21801.7000 3.38101e-15 1.59858e-16
 21808.2000 3.38226e-15 1.61713e-16
 21814.7000 3.40316e-15 1.71087e-16
 21821.1000 3.35358e-15 1.59121e-16
 21827.6000 3.42225e-15 1.66205e-16
 21834.1000 3.33993e-15 1.62983e-16
 21840.6000 3.34902e-15 1.69008e-16
 21847.0000 3.28622e-15 1.61652e-16
 21853.5000 3.39332e-15 1.64403e-16
 21860.0000 3.38158e-15 1.67082e-16
 21866.4000 3.39832e-15 1.69386e-16
 21872.9000 3.35358e-15 1.58865e-16
 21879.4000 3.42718e-15 1.68543e-16
 21885.9000 3.39140e-15 1.60005e-16
 21892.3000 3.48122e-15 1.70756e-16
 21898.8000 3.50110e-15 1.72144e-16
 21905.3000 3.55730e-15 1.73754e-16
 21911.7000 3.57042e-15 1.75472e-16
 21918.2000 3.65161e-15 1.76820e-16
 21924.7000 3.64772e-15 1.68942e-16
 21931.2000 3.69768e-15 1.80508e-16
 21937.6000 3.66680e-15 1.79482e-16
 21944.1000 3.74262e-15 1.79109e-16
 21950.6000 3.78753e-15 1.80708e-16
 21957.1000 3.88607e-15 1.82484e-16
 21963.5000 3.89751e-15 1.87064e-16
 21970.0000 3.97132e-15 1.86333e-16
 21976.5000 4.00127e-15 1.86645e-16
 21982.9000 4.07405e-15 1.93032e-16
 21989.4000 4.06055e-15 1.93058e-16
 21995.9000 4.17348e-15 1.98978e-16
 22002.4000 4.22188e-15 2.02166e-16
 22008.8000 4.36632e-15 2.05537e-16
 22015.3000 4.41269e-15 2.05952e-16
 22021.8000 4.51322e-15 2.08113e-16
 22028.3000 4.51817e-15 2.14032e-16
 22034.7000 4.62875e-15 2.14655e-16
 22041.2000 4.63053e-15 2.17213e-16
 22047.7000 4.70666e-15 2.17570e-16
 22054.1000 4.76334e-15 2.25005e-16
 22060.6000 4.91095e-15 2.26094e-16
 22067.1000 4.96004e-15 2.21632e-16
 22073.6000 5.09932e-15 2.35840e-16
 22080.0000 5.16507e-15 2.42314e-16
 22086.5000 5.24792e-15 2.41266e-16
 22093.0000 5.26784e-15 2.33743e-16
 22099.4000 5.38554e-15 2.46574e-16
 22105.9000 5.31176e-15 2.36856e-16
 22112.4000 5.39384e-15 2.47679e-16
 22118.9000 5.44383e-15 2.40009e-16
 22125.3000 5.56251e-15 2.52650e-16
 22131.8000 5.54371e-15 2.44481e-16
 22138.3000 5.67979e-15 2.55952e-16
 22144.8000 5.71333e-15 2.60330e-16
 22151.2000 5.78254e-15 2.68343e-16
 22157.7000 5.77157e-15 2.57083e-16
 22164.2000 5.94339e-15 2.69664e-16
 22170.6000 5.98888e-15 2.66417e-16
 22177.1000 6.08826e-15 2.79121e-16
 22183.6000 6.08679e-15 2.71801e-16
 22190.1000 6.15716e-15 2.70144e-16
 22196.5000 6.20313e-15 2.73185e-16
 22203.0000 6.26504e-15 2.82886e-16
 22209.5000 6.27365e-15 2.85731e-16
 22216.0000 6.34221e-15 2.81690e-16
 22222.4000 6.39893e-15 2.87332e-16
 22228.9000 6.41111e-15 2.86506e-16
 22235.4000 6.44444e-15 2.78933e-16
 22241.8000 6.56853e-15 2.89235e-16
 22248.3000 6.51605e-15 2.92131e-16
 22254.8000 6.58796e-15 3.00337e-16
 22261.3000 6.57088e-15 2.89138e-16
 22267.7000 6.65036e-15 2.99597e-16
 22274.2000 6.63611e-15 2.91183e-16
 22280.7000 6.68925e-15 3.03833e-16
 22287.1000 6.67962e-15 2.98669e-16
 22293.6000 6.77586e-15 3.06476e-16
 22300.1000 6.76437e-15 2.96949e-16
 22306.6000 6.75200e-15 3.00748e-16
 22313.0000 6.72067e-15 3.01887e-16
 22319.5000 6.70116e-15 2.95436e-16
 22326.0000 6.81549e-15 2.99823e-16
 22332.5000 6.84983e-15 3.10011e-16
 22338.9000 6.87918e-15 3.06736e-16
 22345.4000 6.87114e-15 3.14364e-16
 22351.9000 6.89817e-15 3.03486e-16
 22358.3000 6.85647e-15 3.09217e-16
 22364.8000 6.89567e-15 3.11129e-16
 22371.3000 6.83077e-15 3.06812e-16
 22377.8000 6.93349e-15 3.08331e-16
 22384.2000 6.92150e-15 3.05914e-16
 22390.7000 6.64498e-15 2.90282e-16
 22397.2000 6.85112e-15 3.05052e-16
 22403.6000 6.88939e-15 3.05756e-16
 22410.1000 6.83059e-15 3.10197e-16
 22416.6000 6.88646e-15 3.05337e-16
 22423.1000 6.81531e-15 3.03317e-16
 22429.5000 6.81765e-15 3.04619e-16
 22436.0000 6.76532e-15 3.07762e-16
 22442.5000 6.83720e-15 3.10529e-16
 22449.0000 6.75313e-15 3.04889e-16
 22455.4000 6.74552e-15 3.06222e-16
 22461.9000 6.66716e-15 3.06307e-16
 22468.4000 6.75656e-15 3.06280e-16
 22474.8000 6.65865e-15 2.96045e-16
 22481.3000 6.73138e-15 3.01483e-16
 22487.8000 6.62452e-15 2.96049e-16
 22494.3000 6.66899e-15 3.00080e-16
 22500.7000 6.59795e-15 3.00927e-16
 22507.2000 6.61578e-15 2.95120e-16
 22513.7000 6.60352e-15 2.97788e-16
 22520.2000 6.60761e-15 3.00645e-16
 22526.6000 6.38623e-15 2.92280e-16
 22533.1000 6.42192e-15 2.92199e-16
 22539.6000 6.36376e-15 2.92762e-16
 22546.0000 6.42518e-15 2.94540e-16
 22552.5000 6.28913e-15 2.86921e-16
 22559.0000 6.25182e-15 2.85808e-16
 22565.5000 6.12085e-15 2.78939e-16
 22571.9000 6.14572e-15 2.83096e-16
 22578.4000 6.11478e-15 2.81192e-16
 22584.9000 6.10101e-15 2.77090e-16
 22591.3000 5.95259e-15 2.72768e-16
 22597.8000 5.93249e-15 2.71035e-16
 22604.3000 5.79373e-15 2.67189e-16
 22610.8000 5.78795e-15 2.66705e-16
 22617.2000 5.72420e-15 2.65639e-16
 22623.7000 5.75282e-15 2.68743e-16
 22630.2000 5.65587e-15 2.61193e-16
 22636.7000 5.64413e-15 2.60722e-16
 22643.1000 5.47750e-15 2.55465e-16
 22649.6000 5.45667e-15 2.50929e-16
 22656.1000 5.38111e-15 2.50320e-16
 22662.5000 5.42933e-15 2.53778e-16
 22669.0000 5.32404e-15 2.46737e-16
 22675.5000 5.27625e-15 2.50375e-16
 22682.0000 5.07980e-15 2.39483e-16
 22688.4000 5.03892e-15 2.36735e-16
 22694.9000 4.98940e-15 2.35460e-16
 22701.4000 4.96285e-15 2.32954e-16
 22707.9000 4.85268e-15 2.30136e-16
 22714.3000 4.85061e-15 2.32271e-16
 22720.8000 4.73269e-15 2.28140e-16
 22727.3000 4.70847e-15 2.26887e-16
 22733.7000 4.59389e-15 2.20750e-16
 22740.2000 4.56141e-15 2.22314e-16
 22746.7000 4.42486e-15 2.12538e-16
 22753.2000 4.32463e-15 2.13087e-16
 22759.6000 4.26131e-15 2.11094e-16
 22766.1000 4.24879e-15 2.06501e-16
 22772.6000 4.16780e-15 2.05029e-16
 22779.0000 4.16075e-15 2.03773e-16
 22785.5000 4.05855e-15 1.98013e-16
 22792.0000 4.02313e-15 1.96656e-16
 22798.5000 3.89748e-15 1.91448e-16
 22804.9000 3.85277e-15 1.90546e-16
 22811.4000 3.74610e-15 1.88271e-16
 22817.9000 3.72671e-15 1.88055e-16
 22824.4000 3.62877e-15 1.85117e-16
 22830.8000 3.57627e-15 1.81915e-16
 22837.3000 3.50041e-15 1.77555e-16
 22843.8000 3.51687e-15 1.79860e-16
 22850.2000 3.40199e-15 1.72938e-16
 22856.7000 3.36225e-15 1.71356e-16
 22863.2000 3.30533e-15 1.70968e-16
 22869.7000 3.28477e-15 1.69340e-16
 22876.1000 3.19945e-15 1.63549e-16
 22882.6000 3.19111e-15 1.65300e-16
 22889.1000 3.08418e-15 1.61795e-16
 22895.5000 3.08781e-15 1.62103e-16
 22902.0000 2.99334e-15 1.58400e-16
 22908.5000 2.98770e-15 1.59253e-16
 22915.0000 2.89263e-15 1.53440e-16
 22921.4000 2.90231e-15 1.54496e-16
 22927.9000 2.83945e-15 1.52937e-16
 22934.4000 2.81879e-15 1.51281e-16
 22940.9000 2.70386e-15 1.47047e-16
 22947.3000 2.68755e-15 1.46959e-16
 22953.8000 2.61396e-15 1.43917e-16
 22960.3000 2.62623e-15 1.43604e-16
 22966.7000 2.58227e-15 1.41709e-16
 22973.2000 2.57245e-15 1.41802e-16
 22979.7000 2.50807e-15 1.39248e-16
 22986.2000 2.51074e-15 1.40804e-16
 22992.6000 2.41676e-15 1.35173e-16
 22999.1000 2.44682e-15 1.37897e-16
 23005.6000 2.43191e-15 1.36279e-16
 23012.1000 2.43539e-15 1.37192e-16
 23018.5000 2.33910e-15 1.30970e-16
 23025.0000 2.30211e-15 1.30164e-16
 23031.5000 2.25091e-15 1.28255e-16
 23037.9000 2.28627e-15 1.31844e-16
 23044.4000 2.26565e-15 1.30103e-16
 23050.9000 2.25332e-15 1.28747e-16
 23057.4000 2.25729e-15 1.28896e-16
 23063.8000 2.20871e-15 1.26482e-16
 23070.3000 2.18039e-15 1.25255e-16
 23076.8000 2.19670e-15 1.26439e-16
 23083.2000 2.14694e-15 1.22373e-16
 23089.7000 2.17935e-15 1.23978e-16
 23096.2000 2.15831e-15 1.23234e-16
 23102.7000 2.14914e-15 1.21866e-16
 23109.1000 2.13603e-15 1.22112e-16
 23115.6000 2.14038e-15 1.21656e-16
 23122.1000 2.12244e-15 1.21690e-16
 23128.6000 2.14657e-15 1.21445e-16
 23135.0000 2.14701e-15 1.22059e-16
 23141.5000 2.13612e-15 1.21479e-16
 23148.0000 2.13745e-15 1.23028e-16
 23154.4000 2.14324e-15 1.26117e-16
 23160.9000 2.07016e-15 1.24272e-16
 23167.4000 2.07370e-15 1.27196e-16
 23173.9000 2.04813e-15 1.25638e-16
 23180.3000 2.13229e-15 1.29582e-16
 23186.8000 2.11056e-15 1.25290e-16
 23193.3000 2.10656e-15 1.23530e-16
 23199.8000 2.10399e-15 1.23004e-16
 23206.2000 2.15263e-15 1.26361e-16
 23212.7000 2.18662e-15 1.26136e-16
 23219.2000 2.21001e-15 1.29181e-16
 23225.6000 2.21578e-15 1.28693e-16
 23232.1000 2.24102e-15 1.29700e-16
 23238.6000 2.22828e-15 1.26435e-16
 23245.1000 2.28039e-15 1.30250e-16
 23251.5000 2.24881e-15 1.27552e-16
 23258.0000 2.30152e-15 1.30706e-16
 23264.5000 2.33724e-15 1.31043e-16
 23270.9000 2.31911e-15 1.30754e-16
 23277.4000 2.32838e-15 1.31050e-16
 23283.9000 2.37307e-15 1.34656e-16
 23290.4000 2.39110e-15 1.34682e-16
 23296.8000 2.44373e-15 1.37682e-16
 23303.3000 2.42948e-15 1.34935e-16
 23309.8000 2.44281e-15 1.37286e-16
 23316.3000 2.49071e-15 1.39548e-16
 23322.7000 2.51085e-15 1.39909e-16
 23329.2000 2.53912e-15 1.40248e-16
 23335.7000 2.58902e-15 1.43081e-16
 23342.1000 2.61410e-15 1.43219e-16
 23348.6000 2.65148e-15 1.46088e-16
 23355.1000 2.67944e-15 1.46339e-16
 23361.6000 2.72405e-15 1.49068e-16
 23368.0000 2.75875e-15 1.49528e-16
 23374.5000 2.75142e-15 1.49672e-16
 23381.0000 2.80134e-15 1.52751e-16
 23387.5000 2.83023e-15 1.56390e-16
 23393.9000 2.83168e-15 1.55663e-16
 23400.4000 2.88314e-15 1.58953e-16
 23406.9000 2.94048e-15 1.61704e-16
 23413.3000 2.98866e-15 1.64737e-16
 23419.8000 3.00591e-15 1.61481e-16
 23426.3000 3.09272e-15 1.65630e-16
 23432.8000 3.07714e-15 1.62688e-16
 23439.2000 3.10290e-15 1.66027e-16
 23445.7000 3.14065e-15 1.66752e-16
 23452.2000 3.23412e-15 1.71608e-16
 23458.6000 3.27984e-15 1.72387e-16
 23465.1000 3.31399e-15 1.76955e-16
 23471.6000 3.29499e-15 1.74497e-16
 23478.1000 3.40052e-15 1.80334e-16
 23484.5000 3.43932e-15 1.80572e-16
 23491.0000 3.46024e-15 1.83464e-16
 23497.5000 3.41371e-15 1.80207e-16
 23504.0000 3.45531e-15 1.85035e-16
 23510.4000 3.47446e-15 1.83617e-16
 23516.9000 3.57219e-15 1.91192e-16
 23523.4000 3.60141e-15 1.89305e-16
 23529.8000 3.73480e-15 1.95948e-16
 23536.3000 3.80271e-15 1.95741e-16
 23542.8000 3.80749e-15 1.95564e-16
 23549.3000 3.82309e-15 1.95798e-16
 23555.7000 3.80990e-15 1.95121e-16
 23562.2000 3.84195e-15 1.96826e-16
 23568.7000 3.89728e-15 1.98864e-16
 23575.1000 3.89083e-15 1.98689e-16
 23581.6000 3.84795e-15 1.97796e-16
 23588.1000 3.95597e-15 2.01772e-16
 23594.6000 3.98750e-15 2.00639e-16
 23601.0000 4.03173e-15 1.99708e-16
 23607.5000 4.05832e-15 2.04020e-16
 23614.0000 4.08544e-15 2.02808e-16
 23620.5000 4.05938e-15 2.03323e-16
 23626.9000 4.11044e-15 2.07308e-16
 23633.4000 4.06738e-15 2.03631e-16
 23639.9000 4.12289e-15 2.05764e-16
 23646.3000 4.09258e-15 2.06009e-16
 23652.8000 4.18642e-15 2.10889e-16
 23659.3000 4.16833e-15 2.08415e-16
 23665.8000 4.15857e-15 2.07729e-16
 23672.2000 4.11704e-15 2.06787e-16
 23678.7000 4.16542e-15 2.10175e-16
 23685.2000 4.13842e-15 2.10358e-16
 23691.7000 4.02627e-15 2.09043e-16
 23698.1000 4.02722e-15 2.13878e-16
 23704.6000 3.99150e-15 2.18951e-16
 23711.1000 3.90525e-15 2.15432e-16
 23717.5000 4.04346e-15 2.17250e-16
 23724.0000 4.06153e-15 2.12662e-16
 23730.5000 4.12859e-15 2.10717e-16
 23737.0000 4.06320e-15 2.05869e-16
 23743.4000 4.12838e-15 2.08546e-16
 23749.9000 4.08400e-15 2.09025e-16
 23756.4000 4.05061e-15 2.07786e-16
 23762.8000 3.93487e-15 2.04886e-16
 23769.3000 3.97066e-15 2.06670e-16
 23775.8000 3.84839e-15 2.01490e-16
 23782.3000 3.88909e-15 2.03384e-16
 23788.7000 3.86937e-15 2.00643e-16
 23795.2000 3.87091e-15 1.99398e-16
 23801.7000 3.77779e-15 1.96223e-16
 23808.2000 3.79514e-15 1.93607e-16
 23814.6000 3.71204e-15 1.91546e-16
 23821.1000 3.75267e-15 1.94627e-16
 23827.6000 3.62186e-15 1.93879e-16
 23834.0000 3.56166e-15 1.93260e-16
 23840.5000 3.47465e-15 1.89896e-16
 23847.0000 3.56412e-15 1.90959e-16
 23853.5000 3.49985e-15 1.88424e-16
 23859.9000 3.46559e-15 1.86085e-16
 23866.4000 3.35634e-15 1.81939e-16
 23872.9000 3.37276e-15 1.81486e-16
 23879.4000 3.23689e-15 1.76211e-16
 23885.8000 3.36473e-15 1.80237e-16
 23892.3000 3.23740e-15 1.75572e-16
 23898.8000 3.18278e-15 1.71849e-16
 23905.2000 3.10490e-15 1.72744e-16
 23911.7000 3.04660e-15 1.69857e-16
 23918.2000 2.95416e-15 1.64901e-16
 23924.7000 3.00476e-15 1.64609e-16
 23931.1000 2.90468e-15 1.61096e-16
 23937.6000 2.92889e-15 1.60270e-16
 23944.1000 2.79911e-15 1.56261e-16
 23950.5000 2.82251e-15 1.57496e-16
 23957.0000 2.71467e-15 1.55917e-16
 23963.5000 2.64783e-15 1.54020e-16
 23970.0000 2.55704e-15 1.49708e-16
 23976.4000 2.60712e-15 1.50590e-16
 23982.9000 2.50669e-15 1.44916e-16
 23989.4000 2.47966e-15 1.42108e-16
 23995.9000 2.40491e-15 1.40878e-16
 24002.3000 2.38131e-15 1.40560e-16
 24008.8000 2.28607e-15 1.34904e-16
 24015.3000 2.27897e-15 1.33620e-16
 24021.7000 2.18969e-15 1.29755e-16
 24028.2000 2.19339e-15 1.31715e-16
 24034.7000 2.07466e-15 1.28663e-16
 24041.2000 2.04581e-15 1.28449e-16
 24047.6000 2.01141e-15 1.26911e-16
 24054.1000 2.02166e-15 1.27894e-16
 24060.6000 1.93441e-15 1.25695e-16
 24067.1000 1.91542e-15 1.25979e-16
 24073.5000 1.87423e-15 1.24292e-16
 24080.0000 1.89248e-15 1.22838e-16
 24086.5000 1.79939e-15 1.17078e-16
 24092.9000 1.76938e-15 1.16906e-16
 24099.4000 1.71119e-15 1.14929e-16
 24105.9000 1.71919e-15 1.14261e-16
 24112.4000 1.66432e-15 1.12105e-16
 24118.8000 1.64516e-15 1.10463e-16
 24125.3000 1.63811e-15 1.09523e-16
 24131.8000 1.66183e-15 1.13179e-16
 24138.2000 1.57839e-15 1.10451e-16
 24144.7000 1.58063e-15 1.13377e-16
 24151.2000 1.54942e-15 1.13454e-16
 24157.7000 1.51927e-15 1.15373e-16
 24164.1000 1.53215e-15 1.13848e-16
 24170.6000 1.52854e-15 1.11567e-16
 24177.1000 1.45761e-15 1.08371e-16
 24183.6000 1.48786e-15 1.15540e-16
 24190.0000 1.46600e-15 1.14687e-16
 24196.5000 1.57363e-15 1.18622e-16
 24203.0000 1.59837e-15 1.13023e-16
 24209.4000 1.56342e-15 1.07561e-16
 24215.9000 1.52377e-15 1.04252e-16
 24222.4000 1.58652e-15 1.08490e-16
 24228.9000 1.57099e-15 1.07642e-16
 24235.3000 1.60663e-15 1.12190e-16
 24241.8000 1.58122e-15 1.10075e-16
 24248.3000 1.62660e-15 1.14086e-16
 24254.7000 1.64819e-15 1.13977e-16
 24261.2000 1.70910e-15 1.17944e-16
 24267.7000 1.68473e-15 1.14314e-16
 24274.2000 1.74915e-15 1.17155e-16
 24280.6000 1.80485e-15 1.17046e-16
 24287.1000 1.86108e-15 1.20941e-16
 24293.6000 1.81361e-15 1.15450e-16
 24300.1000 1.91613e-15 1.22582e-16
 24306.5000 1.92122e-15 1.21091e-16
 24313.0000 2.00214e-15 1.26870e-16
 24319.5000 2.00654e-15 1.27753e-16
 24325.9000 2.02894e-15 1.31809e-16
 24332.4000 1.99619e-15 1.31671e-16
 24338.9000 2.12443e-15 1.45333e-16
 24345.4000 2.06985e-15 1.50722e-16
 24351.8000 2.05344e-15 1.67938e-16
 24358.3000 2.02807e-15 1.68959e-16
 24364.8000 2.31679e-15 1.75454e-16
 24371.3000 2.32584e-15 1.52473e-16
 24377.7000 2.38909e-15 1.47907e-16
 24384.2000 2.47355e-15 1.48377e-16
 24390.7000 2.59091e-15 1.53932e-16
 24397.1000 2.56903e-15 1.48825e-16
 24403.6000 2.73439e-15 1.61170e-16
 24410.1000 2.70872e-15 1.57420e-16
 24416.6000 2.79376e-15 1.63998e-16
 24423.0000 2.70793e-15 1.59046e-16
 24429.5000 2.87160e-15 1.71030e-16
 24436.0000 2.88440e-15 1.68153e-16
 24442.4000 2.95943e-15 1.73404e-16
 24448.9000 2.96754e-15 1.80663e-16
 24455.4000 3.00601e-15 1.94249e-16
 24461.9000 2.92416e-15 1.97206e-16
 24468.3000 3.09179e-15 2.10276e-16
 24474.8000 3.18413e-15 2.04646e-16
 24481.3000 3.18552e-15 1.94743e-16
 24487.8000 3.28888e-15 1.96543e-16
 24494.2000 3.36944e-15 2.04922e-16
 24500.7000 3.34192e-15 2.19257e-16
 24507.2000 3.46173e-15 2.36503e-16
 24513.6000 3.52405e-15 2.32655e-16
 24520.1000 3.54983e-15 2.18074e-16
 24526.6000 3.55259e-15 2.10854e-16
 24533.1000 3.71260e-15 2.19281e-16
 24539.5000 3.60889e-15 2.18025e-16
 24546.0000 3.69959e-15 2.19953e-16
 24552.5000 3.72562e-15 2.16400e-16
 24559.0000 3.75939e-15 2.08579e-16
 24565.4000 3.82984e-15 2.10050e-16
 24571.9000 3.85524e-15 2.07340e-16
 24578.4000 3.93177e-15 2.12145e-16
 24584.8000 4.02652e-15 2.16817e-16
 24591.3000 3.98131e-15 2.14478e-16
 24597.8000 4.04755e-15 2.17100e-16
 24604.3000 4.05412e-15 2.19092e-16
 24610.7000 4.13164e-15 2.28290e-16
 24617.2000 4.12169e-15 2.38119e-16
 24623.7000 3.88898e-15 2.33170e-16
 24630.1000 3.86499e-15 2.34488e-16
 24636.6000 3.91974e-15 2.28007e-16
 24643.1000 4.10808e-15 2.33536e-16
 24649.6000 4.20211e-15 2.29975e-16
 24656.0000 4.26894e-15 2.31248e-16
 24662.5000 4.17378e-15 2.25530e-16
 24669.0000 4.26621e-15 2.37369e-16
 24675.5000 4.20366e-15 2.36631e-16
 24681.9000 4.19967e-15 2.36063e-16
 24688.4000 4.18494e-15 2.31251e-16
 24694.9000 4.29794e-15 2.36527e-16
 24701.3000 4.22921e-15 2.34202e-16
 24707.8000 4.21952e-15 2.44795e-16
 24714.3000 4.12420e-15 2.61900e-16
 24720.8000 3.99450e-15 2.85407e-16
 24727.2000 3.82412e-15 2.79413e-16
 24733.7000 4.06808e-15 2.64395e-16
 24740.2000 3.99489e-15 2.35154e-16
 24746.7000 4.14085e-15 2.36691e-16
 24753.1000 4.03821e-15 2.27994e-16
 24759.6000 4.14339e-15 2.29568e-16
 24766.1000 4.02793e-15 2.23908e-16
 24772.5000 4.10512e-15 2.30741e-16
 24779.0000 4.00725e-15 2.30463e-16
 24785.5000 4.12483e-15 2.41001e-16
 24792.0000 3.97304e-15 2.42825e-16
 24798.4000 3.84464e-15 2.44511e-16
 24804.9000 3.70831e-15 2.54043e-16
 24811.4000 3.72310e-15 2.53681e-16
 24817.8000 3.77775e-15 2.50342e-16
 24824.3000 3.83725e-15 2.43065e-16
 24830.8000 3.64346e-15 2.38577e-16
 24837.3000 3.58809e-15 2.49260e-16
 24843.7000 3.34255e-15 2.41497e-16
 24850.2000 3.55386e-15 2.41784e-16
 24856.7000 3.60554e-15 2.33333e-16
 24863.2000 3.55034e-15 2.35169e-16
 24869.6000 3.36335e-15 2.46046e-16
 24876.1000 3.14344e-15 2.51623e-16
 24882.6000 3.09421e-15 2.56827e-16
 24889.0000 3.19713e-15 2.39501e-16
 24895.5000 3.21111e-15 2.24802e-16
 24902.0000 3.19247e-15 2.17396e-16
 24908.5000 3.09610e-15 2.15101e-16
 24914.9000 3.06868e-15 2.21235e-16
 24921.4000 2.88912e-15 2.19981e-16
 24927.9000 3.00626e-15 2.37857e-16
 24934.3000 2.84998e-15 2.35682e-16
 24940.8000 2.90999e-15 2.55821e-16
 24947.3000 2.54285e-15 2.46288e-16
 24953.8000 2.69823e-15 2.33883e-16
 24960.2000 2.59392e-15 1.98182e-16
 24966.7000 2.73300e-15 1.97809e-16
 24973.2000 2.60033e-15 1.80672e-16
 24979.7000 2.71996e-15 1.86835e-16
 24986.1000 2.55448e-15 1.77535e-16
 24992.6000 2.60638e-15 1.80779e-16
 24999.1000 2.49200e-15 1.68054e-16
 25005.5000 2.53176e-15 1.74390e-16
 25012.0000 2.43611e-15 1.68868e-16
 25018.5000 2.54959e-15 1.88505e-16
 25025.0000 2.37555e-15 1.92454e-16
 25031.4000 2.16923e-15 1.96976e-16
 25037.9000 2.02279e-15 1.93445e-16
 25044.4000 2.04535e-15 1.94732e-16
 25050.9000 1.96570e-15 1.97885e-16
 25057.3000 1.98003e-15 1.99794e-16
 25063.8000 1.74898e-15 1.64743e-16
 25070.3000 1.81455e-15 1.55648e-16
 25076.7000 1.83221e-15 1.47741e-16
 25083.2000 1.99503e-15 1.61541e-16
 25089.7000 1.87296e-15 1.60931e-16
 25096.2000 1.91367e-15 1.77465e-16
 25102.6000 1.69383e-15 1.85939e-16
 25109.1000 1.72654e-15 1.99518e-16
 25115.6000 1.36260e-15 1.73635e-16
 25122.0000 1.44269e-15 1.81143e-16
 25128.5000 1.46567e-15 1.59149e-16
 25135.0000 1.61689e-15 1.68141e-16
 25141.5000 1.60461e-15 1.75408e-16
 25147.9000 1.50639e-15 1.86707e-16
 25154.4000 1.19289e-15 2.21245e-16
 25160.9000 1.44920e-15 3.93645e-16
 25167.4000 1.33181e-15 3.86286e-16
 25173.8000 9.01160e-16 2.51385e-16
 25180.3000 1.01856e-15 1.95518e-16
 25186.8000 1.17575e-15 1.84504e-16
 25193.2000 1.13403e-15 1.63534e-16
 25199.7000 1.14123e-15 1.46690e-16
 25206.2000 1.06976e-15 1.30053e-16
 25212.7000 1.08012e-15 1.28593e-16
 25219.1000 1.04036e-15 1.26959e-16
 25225.6000 9.78733e-16 1.34471e-16
 25232.1000 1.08337e-15 1.67322e-16
 25238.6000 9.10139e-16 1.63636e-16
