# SIMPLE = T / Written by IDL: Thu Nov 8 10:58:46 2012 
# BITPIX = -32 / IEEE single precision floating point 
# NAXIS = 1 / Number of axes 
# NAXIS1 = 3376 / 
# EXTEND = T / File may contain extensions 
# ORIGIN = 'NOAO-IRAF FITS Image Kernel July 2003' / FITS file originator 
# DATE = '2012-11-08T07:13:05' / Date FITS file was generated 
# IRAF-TLM= '2012-11-08T07:13:05' / Time of last modification 
# COMMENT FITS (Flexible Image Transport System) format defined in Astronomy and
# COMMENT Astrophysics Supplement Series v44/p363, v44/p371, v73/p359, v73/p365.
# COMMENT Contact the NASA Science Office of Standards and Technology for the 
# COMMENT FITS Definition document #100 and other FITS information. 
# OBJECT = 'PTF12kjh' / object title 
# IMGTYPE = 'object ' / observation type 
# GAIN = 2. / e-/adu 
# RON = 7.5 / electrons 
# DICHROIC= 'D55 ' / Dichroic 
# APERTURE= '1.5 ' / aperture (arcsecs) 
# TURRET = 'APERTURE' / turret position 
# LAMPS = '0000000 ' / lamps: D-FeAr-Hg-Ar-Ne-He-InCand 
# RFILTER = 'OPEN ' / filter wheel 
# OEXPTIME= 200. / originaly req. exposure time 
# EXPTIME = 200. / actual exposure time 
# UTSHUT = '2012-11-07T10:08:39.357' / UT shutter open 
# NAMPSXY = '1 1 ' / number of amplifiers in y x 
# CCDSUM = '1 1 ' / binning in x y 
# ASEC1 = '[1:1124,1:300]' / amplifier section 1(LL) 
# BSEC1 = '[1075:1124,1:300]' / bias section 1(LL) 
# CSEC1 = '[1:1074,1:300]' / ccd section 1(LL) 
# DSEC1 = '[1:1074,1:300]' / data section 1(LL) 
# TSEC1 = '[51:1074,1:300]' / trim section 1(LL) 
# ROISEC = '[1:1024,305:604]' / roi section 
# DETID = 'Site424_1' / detector ID 
# DETNUM = '1 ' / Detector Number 
# DETNAM = 'Site424 ' / detector name 
# FPA = 'DBSP_RED' / focal plan array 
# UTC = '312 10:08:39.4' / <elapsed days> <time-obs> 
# UT = '10:08:39.4' / time-obs 
# OBSLST = '05:29:16.0' / lst-obs 
# RA = '06:55:56.23' / Right Ascencion 
# DEC = '+84:04:39.9' / Declination 
# HOURANG = 'E01:30:09.0' / Hour angle, TCS format 
# HA = '-01:30:09.0' / Hour angle 
# AIRMASS = '1.59269 ' / Airmass 
# TELID = '200 ' / telescope ID 
# TELFOCUS= '40.98 mm' / focus position 
# CASSPA = '-153.99 ' / cass ring angle 
# PARALLAC= '204.16 ' / parallactic angle 
# DHE = 'CCD8 Palomar Camera controller' / detector controller 
# CCDTEMP = '153.00 ' / ccd temp (k) 
# GCOMMENT= ' ' / comment 
# SOFTVER = '3.4 ' / software version 
# HDR_REV = '3.9 ' / gfits version 
# GRATING = '158/7500' / lines/mm-blaze 
# ANGLE = '20.983 deg' / Grating Angle 
# OBSNUM = 68 
# DATE-OBS= '2012-11-07' 
# OBSERVAT= 'palomar ' 
# TIME = '10:08:39.4' 
# OPT_PA = 23.80621483981 
# TELESCOP= 'P200 ' 
# ST = '5:29:15.44' 
# EPOCH = 2012.85125989934 
# UTMIDDLE= '2012-11-07T10:10:19.40' 
# BANDID1 = 'spectrum - background fit, weights variance, clean yes' 
# BANDID2 = 'raw - background fit, weights none, clean no' 
# BANDID3 = 'background - background fit' 
# BANDID4 = 'sigma - background fit, weights variance, clean yes' 
# APNUM1 = '1 1 84.81 92.39' 
# CRVAL1 = 3200.00 / 
# CRPIX1 = 1 / 
# DC-FLAG = 0 
# DCLOG1 = 'REFSPEC1 = arc_redc.ms' 
# FLUX_Z = 1.06134400000 / 
# FLUX_NUM= 66 / 
# FLUX_OBJ= 'G191B2B ' / 
# OBS_PA = -153.990000000 /observed position angle 
# CDELT1 = 2.00000 / 
# CTYPE1 = 'LINEAR ' / 
# W_RANGE = '5200 9950' / 
# BSTAR_Z = 1.06134400000 / 
# BSTARNUM= 66 / 
# BSTAROBJ= 'G191B2B ' / 
# BARYVEL = -8.80715620002 / 
# SKYSHIFT= -1.95518267979 / 
# ATMSHIFT= 0.00000000000 / 
# EXTRACT = 'optimal ' / 
# REDUCER = 'admin ' / 
# RED_DATE= 'Thu Nov 8 10:58:46 2012' /EPOCH OF REDUCTION 
# END 
# 
      3200.00  2.77183e-15
      3202.00  2.37623e-15
      3204.00  3.21101e-15
      3206.00  1.13626e-15
      3208.00  4.90465e-16
      3210.00  4.14616e-16
      3212.00  1.29945e-15
      3214.00  2.79259e-15
      3216.00  2.60727e-15
      3218.00  2.83308e-15
      3220.00  2.57119e-15
      3222.00  2.59453e-15
      3224.00  2.05247e-15
      3226.00  9.38566e-16
      3228.00  2.24254e-15
      3230.00  3.21124e-15
      3232.00  2.80257e-15
      3234.00  2.97553e-15
      3236.00  2.75881e-15
      3238.00  2.97241e-15
      3240.00  2.65051e-15
      3242.00  2.89699e-15
      3244.00  2.55891e-15
      3246.00  2.74524e-15
      3248.00  2.95309e-15
      3250.00  2.60240e-15
      3252.00  2.67979e-15
      3254.00  2.64668e-15
      3256.00  2.61916e-15
      3258.00  2.22191e-15
      3260.00  1.94273e-15
      3262.00  2.08669e-15
      3264.00  1.99713e-15
      3266.00  2.01850e-15
      3268.00  1.63772e-15
      3270.00  1.70134e-15
      3272.00  2.05868e-15
      3274.00  1.41257e-15
      3276.00  1.48126e-15
      3278.00  1.63863e-15
      3280.00  1.77629e-15
      3282.00  2.02051e-15
      3284.00  1.33001e-15
      3286.00  9.71127e-16
      3288.00  1.11789e-15
      3290.00  1.33875e-15
      3292.00  1.22351e-15
      3294.00  1.04141e-15
      3296.00  1.18418e-15
      3298.00  1.20506e-15
      3300.00  1.29180e-15
      3302.00  1.10092e-15
      3304.00  1.10954e-15
      3306.00  1.11221e-15
      3308.00  1.01104e-15
      3310.00  1.28001e-15
      3312.00  1.16130e-15
      3314.00  1.39867e-15
      3316.00  1.21685e-15
      3318.00  1.18676e-15
      3320.00  1.24563e-15
      3322.00  1.16534e-15
      3324.00  1.44716e-15
      3326.00  1.20004e-15
      3328.00  1.34379e-15
      3330.00  1.18872e-15
      3332.00  1.08050e-15
      3334.00  1.29207e-15
      3336.00  1.50145e-15
      3338.00  1.51210e-15
      3340.00  1.47552e-15
      3342.00  1.44835e-15
      3344.00  1.32387e-15
      3346.00  1.38083e-15
      3348.00  1.32905e-15
      3350.00  1.34624e-15
      3352.00  1.40390e-15
      3354.00  1.63448e-15
      3356.00  1.69831e-15
      3358.00  1.43468e-15
      3360.00  1.36899e-15
      3362.00  1.50156e-15
      3364.00  1.62471e-15
      3366.00  1.23182e-15
      3368.00  1.57010e-15
      3370.00  1.60934e-15
      3372.00  1.69733e-15
      3374.00  1.63676e-15
      3376.00  1.72613e-15
      3378.00  1.60064e-15
      3380.00  1.73528e-15
      3382.00  1.62249e-15
      3384.00  1.70969e-15
      3386.00  1.87223e-15
      3388.00  1.90110e-15
      3390.00  1.72972e-15
      3392.00  1.68666e-15
      3394.00  1.83255e-15
      3396.00  1.71010e-15
      3398.00  1.56448e-15
      3400.00  1.70205e-15
      3402.00  1.82032e-15
      3404.00  1.75802e-15
      3406.00  1.56653e-15
      3408.00  1.78100e-15
      3410.00  1.69083e-15
      3412.00  1.73924e-15
      3414.00  1.71512e-15
      3416.00  1.67492e-15
      3418.00  1.70292e-15
      3420.00  1.63036e-15
      3422.00  1.38537e-15
      3424.00  1.60196e-15
      3426.00  1.62651e-15
      3428.00  1.55893e-15
      3430.00  1.68685e-15
      3432.00  1.67362e-15
      3434.00  1.82666e-15
      3436.00  1.69170e-15
      3438.00  1.83910e-15
      3440.00  1.69906e-15
      3442.00  1.83903e-15
      3444.00  1.88039e-15
      3446.00  1.91665e-15
      3448.00  2.01198e-15
      3450.00  1.96649e-15
      3452.00  1.92166e-15
      3454.00  1.84643e-15
      3456.00  2.09222e-15
      3458.00  2.10374e-15
      3460.00  2.12072e-15
      3462.00  2.07010e-15
      3464.00  2.12209e-15
      3466.00  2.20178e-15
      3468.00  2.15256e-15
      3470.00  2.06906e-15
      3472.00  2.18303e-15
      3474.00  2.25103e-15
      3476.00  2.40924e-15
      3478.00  2.28869e-15
      3480.00  2.23903e-15
      3482.00  2.31300e-15
      3484.00  2.34404e-15
      3486.00  2.42354e-15
      3488.00  2.35600e-15
      3490.00  2.25758e-15
      3492.00  2.33672e-15
      3494.00  2.38911e-15
      3496.00  2.43946e-15
      3498.00  2.49123e-15
      3500.00  2.46798e-15
      3502.00  2.42109e-15
      3504.00  2.43772e-15
      3506.00  2.36663e-15
      3508.00  2.39053e-15
      3510.00  2.39198e-15
      3512.00  2.38969e-15
      3514.00  2.27731e-15
      3516.00  2.56196e-15
      3518.00  2.45319e-15
      3520.00  2.34131e-15
      3522.00  2.48330e-15
      3524.00  2.47385e-15
      3526.00  2.62297e-15
      3528.00  2.66916e-15
      3530.00  2.53170e-15
      3532.00  2.49295e-15
      3534.00  2.56792e-15
      3536.00  2.48198e-15
      3538.00  2.33687e-15
      3540.00  2.61981e-15
      3542.00  2.46795e-15
      3544.00  2.48397e-15
      3546.00  2.56644e-15
      3548.00  2.58105e-15
      3550.00  2.45096e-15
      3552.00  2.61406e-15
      3554.00  2.58258e-15
      3556.00  2.67454e-15
      3558.00  2.65141e-15
      3560.00  2.64918e-15
      3562.00  3.00262e-15
      3564.00  2.78749e-15
      3566.00  2.96554e-15
      3568.00  2.85406e-15
      3570.00  2.97491e-15
      3572.00  3.00017e-15
      3574.00  3.01007e-15
      3576.00  3.04280e-15
      3578.00  2.97743e-15
      3580.00  3.14517e-15
      3582.00  3.14582e-15
      3584.00  3.17353e-15
      3586.00  3.19735e-15
      3588.00  3.25426e-15
      3590.00  3.24086e-15
      3592.00  3.16082e-15
      3594.00  3.21633e-15
      3596.00  3.15391e-15
      3598.00  3.22595e-15
      3600.00  3.24732e-15
      3602.00  3.23548e-15
      3604.00  3.32005e-15
      3606.00  3.17331e-15
      3608.00  3.27990e-15
      3610.00  3.28189e-15
      3612.00  3.44607e-15
      3614.00  3.29010e-15
      3616.00  3.50022e-15
      3618.00  3.55824e-15
      3620.00  3.54240e-15
      3622.00  3.52846e-15
      3624.00  3.55662e-15
      3626.00  3.65357e-15
      3628.00  3.56441e-15
      3630.00  3.94083e-15
      3632.00  3.57597e-15
      3634.00  3.61677e-15
      3636.00  3.68808e-15
      3638.00  3.64029e-15
      3640.00  3.42251e-15
      3642.00  3.63350e-15
      3644.00  3.56998e-15
      3646.00  3.58383e-15
      3648.00  3.54747e-15
      3650.00  3.68116e-15
      3652.00  3.63060e-15
      3654.00  3.56582e-15
      3656.00  3.67264e-15
      3658.00  3.56993e-15
      3660.00  3.55100e-15
      3662.00  3.54900e-15
      3664.00  3.44994e-15
      3666.00  3.60116e-15
      3668.00  3.54500e-15
      3670.00  3.57259e-15
      3672.00  3.39972e-15
      3674.00  3.42887e-15
      3676.00  3.32431e-15
      3678.00  3.34091e-15
      3680.00  3.41527e-15
      3682.00  3.37260e-15
      3684.00  3.39652e-15
      3686.00  3.30446e-15
      3688.00  3.19080e-15
      3690.00  3.27003e-15
      3692.00  3.37315e-15
      3694.00  3.25336e-15
      3696.00  3.21248e-15
      3698.00  3.32024e-15
      3700.00  3.31153e-15
      3702.00  3.32364e-15
      3704.00  3.37188e-15
      3706.00  3.28748e-15
      3708.00  3.20853e-15
      3710.00  3.31077e-15
      3712.00  3.45913e-15
      3714.00  3.51219e-15
      3716.00  3.48897e-15
      3718.00  3.54866e-15
      3720.00  3.71758e-15
      3722.00  3.60595e-15
      3724.00  3.75195e-15
      3726.00  3.64129e-15
      3728.00  3.54376e-15
      3730.00  3.54924e-15
      3732.00  3.61380e-15
      3734.00  3.44561e-15
      3736.00  3.41008e-15
      3738.00  3.33158e-15
      3740.00  3.23548e-15
      3742.00  3.17010e-15
      3744.00  2.94542e-15
      3746.00  2.87935e-15
      3748.00  2.81905e-15
      3750.00  2.66513e-15
      3752.00  2.56305e-15
      3754.00  2.49036e-15
      3756.00  2.40718e-15
      3758.00  2.32454e-15
      3760.00  2.26451e-15
      3762.00  2.24269e-15
      3764.00  2.15811e-15
      3766.00  2.06775e-15
      3768.00  2.13482e-15
      3770.00  2.09473e-15
      3772.00  2.04720e-15
      3774.00  2.07303e-15
      3776.00  1.99198e-15
      3778.00  2.02397e-15
      3780.00  2.02438e-15
      3782.00  1.84023e-15
      3784.00  1.88387e-15
      3786.00  1.93348e-15
      3788.00  1.96165e-15
      3790.00  1.96428e-15
      3792.00  1.98373e-15
      3794.00  1.94323e-15
      3796.00  1.96948e-15
      3798.00  2.03297e-15
      3800.00  2.03611e-15
      3802.00  1.99518e-15
      3804.00  2.11166e-15
      3806.00  2.12200e-15
      3808.00  1.90746e-15
      3810.00  1.90363e-15
      3812.00  1.90334e-15
      3814.00  1.96050e-15
      3816.00  1.85889e-15
      3818.00  1.90809e-15
      3820.00  1.85787e-15
      3822.00  1.81876e-15
      3824.00  1.81932e-15
      3826.00  1.77101e-15
      3828.00  1.77245e-15
      3830.00  1.81867e-15
      3832.00  1.67314e-15
      3834.00  1.73361e-15
      3836.00  1.79905e-15
      3838.00  1.66638e-15
      3840.00  1.69605e-15
      3842.00  1.68771e-15
      3844.00  1.65604e-15
      3846.00  1.77663e-15
      3848.00  1.77080e-15
      3850.00  1.72352e-15
      3852.00  1.78701e-15
      3854.00  1.69325e-15
      3856.00  1.78878e-15
      3858.00  1.68913e-15
      3860.00  1.70661e-15
      3862.00  1.74494e-15
      3864.00  1.69250e-15
      3866.00  1.75134e-15
      3868.00  1.71796e-15
      3870.00  1.85589e-15
      3872.00  1.81489e-15
      3874.00  1.86110e-15
      3876.00  1.91356e-15
      3878.00  2.03366e-15
      3880.00  2.02400e-15
      3882.00  2.13739e-15
      3884.00  2.19159e-15
      3886.00  2.19729e-15
      3888.00  2.24355e-15
      3890.00  2.28011e-15
      3892.00  2.44000e-15
      3894.00  2.40121e-15
      3896.00  2.49259e-15
      3898.00  2.63363e-15
      3900.00  2.67710e-15
      3902.00  2.84693e-15
      3904.00  2.88429e-15
      3906.00  2.87403e-15
      3908.00  2.98739e-15
      3910.00  3.07588e-15
      3912.00  3.18006e-15
      3914.00  3.25593e-15
      3916.00  3.30956e-15
      3918.00  3.55641e-15
      3920.00  3.60248e-15
      3922.00  3.69876e-15
      3924.00  3.81076e-15
      3926.00  3.84060e-15
      3928.00  4.02092e-15
      3930.00  4.10225e-15
      3932.00  3.85410e-15
      3934.00  4.03628e-15
      3936.00  4.32948e-15
      3938.00  4.39263e-15
      3940.00  4.43468e-15
      3942.00  4.62874e-15
      3944.00  4.69312e-15
      3946.00  4.85756e-15
      3948.00  4.84864e-15
      3950.00  4.91636e-15
      3952.00  4.86359e-15
      3954.00  4.93759e-15
      3956.00  5.02190e-15
      3958.00  4.95016e-15
      3960.00  4.91402e-15
      3962.00  4.92864e-15
      3964.00  4.99002e-15
      3966.00  4.97429e-15
      3968.00  4.80275e-15
      3970.00  5.06111e-15
      3972.00  5.07600e-15
      3974.00  5.19304e-15
      3976.00  5.03185e-15
      3978.00  4.98928e-15
      3980.00  5.13188e-15
      3982.00  5.03483e-15
      3984.00  5.12746e-15
      3986.00  4.88752e-15
      3988.00  4.96618e-15
      3990.00  4.90841e-15
      3992.00  5.09717e-15
      3994.00  5.21110e-15
      3996.00  5.16893e-15
      3998.00  5.11058e-15
      4000.00  5.30864e-15
      4002.00  5.37859e-15
      4004.00  5.26076e-15
      4006.00  5.36293e-15
      4008.00  5.31419e-15
      4010.00  5.36763e-15
      4012.00  5.31034e-15
      4014.00  5.35408e-15
      4016.00  5.40464e-15
      4018.00  5.20166e-15
      4020.00  5.05851e-15
      4022.00  4.98963e-15
      4024.00  4.83648e-15
      4026.00  4.89508e-15
      4028.00  4.81674e-15
      4030.00  4.73450e-15
      4032.00  4.72918e-15
      4034.00  4.49262e-15
      4036.00  4.36495e-15
      4038.00  4.21751e-15
      4040.00  4.09281e-15
      4042.00  3.95953e-15
      4044.00  3.94579e-15
      4046.00  3.91643e-15
      4048.00  3.87608e-15
      4050.00  3.76094e-15
      4052.00  3.72956e-15
      4054.00  3.69689e-15
      4056.00  3.72583e-15
      4058.00  3.70673e-15
      4060.00  3.80545e-15
      4062.00  3.74927e-15
      4064.00  3.76029e-15
      4066.00  3.68725e-15
      4068.00  3.58172e-15
      4070.00  3.65459e-15
      4072.00  3.72717e-15
      4074.00  3.69268e-15
      4076.00  3.67482e-15
      4078.00  3.74018e-15
      4080.00  3.74855e-15
      4082.00  3.77198e-15
      4084.00  3.62549e-15
      4086.00  3.76225e-15
      4088.00  3.80416e-15
      4090.00  3.93616e-15
      4092.00  3.89051e-15
      4094.00  3.75123e-15
      4096.00  3.88723e-15
      4098.00  4.03868e-15
      4100.00  4.05852e-15
      4102.00  4.03947e-15
      4104.00  4.05615e-15
      4106.00  4.26975e-15
      4108.00  4.37510e-15
      4110.00  4.39592e-15
      4112.00  4.44785e-15
      4114.00  4.44725e-15
      4116.00  4.51544e-15
      4118.00  4.57959e-15
      4120.00  4.71585e-15
      4122.00  4.84850e-15
      4124.00  4.74278e-15
      4126.00  4.77523e-15
      4128.00  4.80336e-15
      4130.00  4.77089e-15
      4132.00  4.94555e-15
      4134.00  4.84185e-15
      4136.00  4.85185e-15
      4138.00  4.90905e-15
      4140.00  4.80871e-15
      4142.00  4.85745e-15
      4144.00  4.72233e-15
      4146.00  4.75148e-15
      4148.00  4.75353e-15
      4150.00  4.72729e-15
      4152.00  4.60920e-15
      4154.00  4.72421e-15
      4156.00  4.66082e-15
      4158.00  4.65405e-15
      4160.00  4.54702e-15
      4162.00  4.64168e-15
      4164.00  4.55835e-15
      4166.00  4.62313e-15
      4168.00  4.65893e-15
      4170.00  4.64543e-15
      4172.00  4.59141e-15
      4174.00  4.60585e-15
      4176.00  4.50547e-15
      4178.00  4.56641e-15
      4180.00  4.55525e-15
      4182.00  4.64262e-15
      4184.00  4.62667e-15
      4186.00  4.59339e-15
      4188.00  4.49263e-15
      4190.00  4.64491e-15
      4192.00  4.67092e-15
      4194.00  4.57477e-15
      4196.00  4.58462e-15
      4198.00  4.30562e-15
      4200.00  4.43195e-15
      4202.00  4.44270e-15
      4204.00  4.45106e-15
      4206.00  4.45565e-15
      4208.00  4.46066e-15
      4210.00  4.39738e-15
      4212.00  4.47660e-15
      4214.00  4.38092e-15
      4216.00  4.39631e-15
      4218.00  4.38408e-15
      4220.00  4.44696e-15
      4222.00  4.49007e-15
      4224.00  4.49432e-15
      4226.00  4.61314e-15
      4228.00  4.63003e-15
      4230.00  4.49027e-15
      4232.00  4.63351e-15
      4234.00  4.59800e-15
      4236.00  4.67918e-15
      4238.00  4.66947e-15
      4240.00  4.66586e-15
      4242.00  4.66382e-15
      4244.00  4.64903e-15
      4246.00  4.66412e-15
      4248.00  4.83146e-15
      4250.00  4.74636e-15
      4252.00  4.81342e-15
      4254.00  4.64711e-15
      4256.00  4.63510e-15
      4258.00  4.58429e-15
      4260.00  4.56836e-15
      4262.00  4.44946e-15
      4264.00  4.40839e-15
      4266.00  4.33209e-15
      4268.00  4.36353e-15
      4270.00  4.28613e-15
      4272.00  4.29968e-15
      4274.00  4.24897e-15
      4276.00  4.28379e-15
      4278.00  4.24579e-15
      4280.00  4.33016e-15
      4282.00  4.27949e-15
      4284.00  4.24206e-15
      4286.00  4.23837e-15
      4288.00  4.27147e-15
      4290.00  4.17484e-15
      4292.00  4.11829e-15
      4294.00  4.12550e-15
      4296.00  4.10956e-15
      4298.00  4.01100e-15
      4300.00  3.93488e-15
      4302.00  3.94735e-15
      4304.00  4.00841e-15
      4306.00  3.93038e-15
      4308.00  3.79303e-15
      4310.00  3.84087e-15
      4312.00  3.85618e-15
      4314.00  3.77845e-15
      4316.00  3.67606e-15
      4318.00  3.76631e-15
      4320.00  3.76224e-15
      4322.00  3.74639e-15
      4324.00  3.68977e-15
      4326.00  3.56495e-15
      4328.00  3.57006e-15
      4330.00  3.53523e-15
      4332.00  3.49744e-15
      4334.00  3.43557e-15
      4336.00  3.46638e-15
      4338.00  3.47157e-15
      4340.00  3.46497e-15
      4342.00  3.33191e-15
      4344.00  3.29584e-15
      4346.00  3.26918e-15
      4348.00  3.21352e-15
      4350.00  3.13536e-15
      4352.00  3.05817e-15
      4354.00  2.99212e-15
      4356.00  2.91986e-15
      4358.00  2.88267e-15
      4360.00  2.79931e-15
      4362.00  2.84044e-15
      4364.00  2.75779e-15
      4366.00  2.74831e-15
      4368.00  2.69525e-15
      4370.00  2.70327e-15
      4372.00  2.64449e-15
      4374.00  2.54926e-15
      4376.00  2.59431e-15
      4378.00  2.62147e-15
      4380.00  2.52910e-15
      4382.00  2.61788e-15
      4384.00  2.55752e-15
      4386.00  2.53595e-15
      4388.00  2.53441e-15
      4390.00  2.55570e-15
      4392.00  2.53198e-15
      4394.00  2.67801e-15
      4396.00  2.71463e-15
      4398.00  2.77409e-15
      4400.00  2.73287e-15
      4402.00  2.87143e-15
      4404.00  2.87913e-15
      4406.00  2.95786e-15
      4408.00  2.85898e-15
      4410.00  2.84864e-15
      4412.00  2.85874e-15
      4414.00  2.84276e-15
      4416.00  2.84891e-15
      4418.00  2.80936e-15
      4420.00  2.90308e-15
      4422.00  2.90256e-15
      4424.00  2.85710e-15
      4426.00  2.88034e-15
      4428.00  2.82087e-15
      4430.00  2.88434e-15
      4432.00  2.84385e-15
      4434.00  2.80744e-15
      4436.00  2.89822e-15
      4438.00  2.88371e-15
      4440.00  2.85904e-15
      4442.00  2.97202e-15
      4444.00  2.92372e-15
      4446.00  2.98363e-15
      4448.00  2.96691e-15
      4450.00  2.95387e-15
      4452.00  2.95774e-15
      4454.00  2.93749e-15
      4456.00  2.94855e-15
      4458.00  2.90395e-15
      4460.00  2.91023e-15
      4462.00  2.90777e-15
      4464.00  2.95799e-15
      4466.00  2.83015e-15
      4468.00  2.82533e-15
      4470.00  2.91210e-15
      4472.00  2.94716e-15
      4474.00  2.93479e-15
      4476.00  3.00616e-15
      4478.00  3.00474e-15
      4480.00  3.04846e-15
      4482.00  3.04261e-15
      4484.00  3.05530e-15
      4486.00  3.05062e-15
      4488.00  3.13637e-15
      4490.00  3.03530e-15
      4492.00  3.04761e-15
      4494.00  2.98948e-15
      4496.00  3.03183e-15
      4498.00  3.02885e-15
      4500.00  3.06221e-15
      4502.00  3.12662e-15
      4504.00  3.15078e-15
      4506.00  3.17411e-15
      4508.00  3.21005e-15
      4510.00  3.27081e-15
      4512.00  3.32573e-15
      4514.00  3.26530e-15
      4516.00  3.27298e-15
      4518.00  3.29333e-15
      4520.00  3.34863e-15
      4522.00  3.45030e-15
      4524.00  3.53343e-15
      4526.00  3.49213e-15
      4528.00  3.49978e-15
      4530.00  3.56950e-15
      4532.00  3.59745e-15
      4534.00  3.61457e-15
      4536.00  3.66358e-15
      4538.00  3.73148e-15
      4540.00  3.81315e-15
      4542.00  3.77949e-15
      4544.00  3.79145e-15
      4546.00  3.90433e-15
      4548.00  3.86727e-15
      4550.00  3.99813e-15
      4552.00  4.00130e-15
      4554.00  4.11469e-15
      4556.00  4.18006e-15
      4558.00  4.24534e-15
      4560.00  4.26627e-15
      4562.00  4.23681e-15
      4564.00  4.22265e-15
      4566.00  4.42134e-15
      4568.00  4.38310e-15
      4570.00  4.39287e-15
      4572.00  4.45242e-15
      4574.00  4.46196e-15
      4576.00  4.38074e-15
      4578.00  4.46792e-15
      4580.00  4.50421e-15
      4582.00  4.46646e-15
      4584.00  4.36661e-15
      4586.00  4.42007e-15
      4588.00  4.41862e-15
      4590.00  4.57907e-15
      4592.00  4.55299e-15
      4594.00  4.51821e-15
      4596.00  4.50870e-15
      4598.00  4.55795e-15
      4600.00  4.63235e-15
      4602.00  4.62348e-15
      4604.00  4.57221e-15
      4606.00  4.59312e-15
      4608.00  4.57593e-15
      4610.00  4.60772e-15
      4612.00  4.67619e-15
      4614.00  4.62132e-15
      4616.00  4.52841e-15
      4618.00  4.60794e-15
      4620.00  4.61439e-15
      4622.00  4.65390e-15
      4624.00  4.64432e-15
      4626.00  4.61986e-15
      4628.00  4.56872e-15
      4630.00  4.57895e-15
      4632.00  4.61215e-15
      4634.00  4.54804e-15
      4636.00  4.57576e-15
      4638.00  4.45114e-15
      4640.00  4.41742e-15
      4642.00  4.47291e-15
      4644.00  4.44703e-15
      4646.00  4.41053e-15
      4648.00  4.42889e-15
      4650.00  4.45302e-15
      4652.00  4.38789e-15
      4654.00  4.43307e-15
      4656.00  4.44099e-15
      4658.00  4.52321e-15
      4660.00  4.44793e-15
      4662.00  4.49614e-15
      4664.00  4.46254e-15
      4666.00  4.57444e-15
      4668.00  4.58934e-15
      4670.00  4.64593e-15
      4672.00  4.48524e-15
      4674.00  4.59401e-15
      4676.00  4.69079e-15
      4678.00  4.64679e-15
      4680.00  4.66822e-15
      4682.00  4.62291e-15
      4684.00  4.57459e-15
      4686.00  4.70593e-15
      4688.00  4.57049e-15
      4690.00  4.60057e-15
      4692.00  4.58996e-15
      4694.00  4.54691e-15
      4696.00  4.55289e-15
      4698.00  4.49732e-15
      4700.00  4.52881e-15
      4702.00  4.51886e-15
      4704.00  4.49568e-15
      4706.00  4.42744e-15
      4708.00  4.47763e-15
      4710.00  4.38928e-15
      4712.00  4.32885e-15
      4714.00  4.33877e-15
      4716.00  4.24983e-15
      4718.00  4.18898e-15
      4720.00  4.14030e-15
      4722.00  4.03386e-15
      4724.00  3.91124e-15
      4726.00  3.86557e-15
      4728.00  3.94881e-15
      4730.00  3.74869e-15
      4732.00  3.83443e-15
      4734.00  3.76870e-15
      4736.00  3.65347e-15
      4738.00  3.61575e-15
      4740.00  3.55512e-15
      4742.00  3.50435e-15
      4744.00  3.58517e-15
      4746.00  3.45797e-15
      4748.00  3.53385e-15
      4750.00  3.40285e-15
      4752.00  3.54886e-15
      4754.00  3.45059e-15
      4756.00  3.36511e-15
      4758.00  3.43017e-15
      4760.00  3.51675e-15
      4762.00  3.49634e-15
      4764.00  3.49497e-15
      4766.00  3.36854e-15
      4768.00  3.37031e-15
      4770.00  3.40449e-15
      4772.00  3.48138e-15
      4774.00  3.38994e-15
      4776.00  3.45402e-15
      4778.00  3.36266e-15
      4780.00  3.34763e-15
      4782.00  3.31333e-15
      4784.00  3.46094e-15
      4786.00  3.53145e-15
      4788.00  3.45192e-15
      4790.00  3.43095e-15
      4792.00  3.41817e-15
      4794.00  3.37344e-15
      4796.00  3.39823e-15
      4798.00  3.36916e-15
      4800.00  3.29006e-15
      4802.00  3.26648e-15
      4804.00  3.37404e-15
      4806.00  3.27449e-15
      4808.00  3.32731e-15
      4810.00  3.18853e-15
      4812.00  3.19275e-15
      4814.00  3.07011e-15
      4816.00  3.04629e-15
      4818.00  2.96787e-15
      4820.00  2.93326e-15
      4822.00  2.96049e-15
      4824.00  2.84918e-15
      4826.00  2.88708e-15
      4828.00  2.71071e-15
      4830.00  2.62263e-15
      4832.00  2.65723e-15
      4834.00  2.67592e-15
      4836.00  2.59776e-15
      4838.00  2.69569e-15
      4840.00  2.63753e-15
      4842.00  2.65240e-15
      4844.00  2.70814e-15
      4846.00  2.71616e-15
      4848.00  2.77187e-15
      4850.00  2.69278e-15
      4852.00  2.69264e-15
      4854.00  2.75686e-15
      4856.00  2.75280e-15
      4858.00  2.80926e-15
      4860.00  2.85754e-15
      4862.00  2.81211e-15
      4864.00  2.78371e-15
      4866.00  2.88224e-15
      4868.00  2.88399e-15
      4870.00  2.97108e-15
      4872.00  3.02335e-15
      4874.00  2.98441e-15
      4876.00  3.07807e-15
      4878.00  3.02352e-15
      4880.00  3.06390e-15
      4882.00  3.14587e-15
      4884.00  2.97315e-15
      4886.00  3.07478e-15
      4888.00  3.01149e-15
      4890.00  2.96712e-15
      4892.00  2.96398e-15
      4894.00  3.01314e-15
      4896.00  3.00657e-15
      4898.00  2.89830e-15
      4900.00  2.83611e-15
      4902.00  2.79861e-15
      4904.00  2.74750e-15
      4906.00  2.68702e-15
      4908.00  2.67490e-15
      4910.00  2.59041e-15
      4912.00  2.54800e-15
      4914.00  2.50896e-15
      4916.00  2.47302e-15
      4918.00  2.43051e-15
      4920.00  2.37840e-15
      4922.00  2.23842e-15
      4924.00  2.15530e-15
      4926.00  2.15292e-15
      4928.00  2.12998e-15
      4930.00  2.13620e-15
      4932.00  2.13216e-15
      4934.00  2.02783e-15
      4936.00  2.04995e-15
      4938.00  2.05491e-15
      4940.00  2.09023e-15
      4942.00  2.06380e-15
      4944.00  1.98037e-15
      4946.00  1.93777e-15
      4948.00  1.99142e-15
      4950.00  1.95749e-15
      4952.00  1.98096e-15
      4954.00  2.04540e-15
      4956.00  2.06421e-15
      4958.00  2.08335e-15
      4960.00  2.17762e-15
      4962.00  2.19031e-15
      4964.00  2.11743e-15
      4966.00  2.17820e-15
      4968.00  2.23623e-15
      4970.00  2.30919e-15
      4972.00  2.29886e-15
      4974.00  2.38749e-15
      4976.00  2.45315e-15
      4978.00  2.40419e-15
      4980.00  2.55333e-15
      4982.00  2.51530e-15
      4984.00  2.58184e-15
      4986.00  2.58007e-15
      4988.00  2.52433e-15
      4990.00  2.56496e-15
      4992.00  2.65548e-15
      4994.00  2.75848e-15
      4996.00  2.70049e-15
      4998.00  2.68331e-15
      5000.00  2.70203e-15
      5002.00  2.65343e-15
      5004.00  2.68222e-15
      5006.00  2.75198e-15
      5008.00  2.66187e-15
      5010.00  2.75640e-15
      5012.00  2.74695e-15
      5014.00  2.72058e-15
      5016.00  2.70472e-15
      5018.00  2.75902e-15
      5020.00  2.72901e-15
      5022.00  2.71320e-15
      5024.00  2.79445e-15
      5026.00  2.80332e-15
      5028.00  2.81669e-15
      5030.00  2.74335e-15
      5032.00  2.83852e-15
      5034.00  2.77960e-15
      5036.00  2.69879e-15
      5038.00  2.74056e-15
      5040.00  2.72875e-15
      5042.00  2.64278e-15
      5044.00  2.71592e-15
      5046.00  2.67973e-15
      5048.00  2.64468e-15
      5050.00  2.61814e-15
      5052.00  2.64645e-15
      5054.00  2.61765e-15
      5056.00  2.61272e-15
      5058.00  2.57609e-15
      5060.00  2.53012e-15
      5062.00  2.48787e-15
      5064.00  2.45792e-15
      5066.00  2.47314e-15
      5068.00  2.37317e-15
      5070.00  2.38634e-15
      5072.00  2.41924e-15
      5074.00  2.44676e-15
      5076.00  2.39689e-15
      5078.00  2.48941e-15
      5080.00  2.43476e-15
      5082.00  2.36143e-15
      5084.00  2.45206e-15
      5086.00  2.42962e-15
      5088.00  2.39367e-15
      5090.00  2.37659e-15
      5092.00  2.47803e-15
      5094.00  2.43089e-15
      5096.00  2.47300e-15
      5098.00  2.47624e-15
      5100.00  2.47168e-15
      5102.00  2.51382e-15
      5104.00  2.50142e-15
      5106.00  2.57870e-15
      5108.00  2.57195e-15
      5110.00  2.53513e-15
      5112.00  2.57823e-15
      5114.00  2.55434e-15
      5116.00  2.62692e-15
      5118.00  2.56566e-15
      5120.00  2.61254e-15
      5122.00  2.58691e-15
      5124.00  2.57070e-15
      5126.00  2.62812e-15
      5128.00  2.60113e-15
      5130.00  2.58334e-15
      5132.00  2.64160e-15
      5134.00  2.72113e-15
      5136.00  2.68380e-15
      5138.00  2.63337e-15
      5140.00  2.65408e-15
      5142.00  2.59096e-15
      5144.00  2.69270e-15
      5146.00  2.64337e-15
      5148.00  2.77446e-15
      5150.00  2.77110e-15
      5152.00  2.82898e-15
      5154.00  2.85219e-15
      5156.00  2.86175e-15
      5158.00  2.92342e-15
      5160.00  2.86719e-15
      5162.00  2.89504e-15
      5164.00  2.90541e-15
      5166.00  2.86760e-15
      5168.00  2.91724e-15
      5170.00  2.95237e-15
      5172.00  2.91598e-15
      5174.00  2.98641e-15
      5176.00  2.98110e-15
      5178.00  2.93864e-15
      5180.00  2.99803e-15
      5182.00  3.02476e-15
      5184.00  3.11564e-15
      5186.00  3.13536e-15
      5188.00  3.06984e-15
      5190.00  3.17809e-15
      5192.00  3.18642e-15
      5194.00  3.14647e-15
      5196.00  3.09371e-15
      5198.00  3.18219e-15
      5200.00  3.18752e-15
      5202.00  3.16208e-15
      5204.00  3.15772e-15
      5206.00  3.17299e-15
      5208.00  3.28017e-15
      5210.00  3.11814e-15
      5212.00  3.07957e-15
      5214.00  3.18745e-15
      5216.00  3.19607e-15
      5218.00  3.25228e-15
      5220.00  3.13336e-15
      5222.00  3.23316e-15
      5224.00  3.22053e-15
      5226.00  3.24219e-15
      5228.00  3.27700e-15
      5230.00  3.30877e-15
      5232.00  3.26564e-15
      5234.00  3.26457e-15
      5236.00  3.24520e-15
      5238.00  3.22011e-15
      5240.00  3.24108e-15
      5242.00  3.22815e-15
      5244.00  3.23438e-15
      5246.00  3.27332e-15
      5248.00  3.24095e-15
      5250.00  3.15698e-15
      5252.00  3.22398e-15
      5254.00  3.15470e-15
      5256.00  3.18683e-15
      5258.00  3.22120e-15
      5260.00  3.20812e-15
      5262.00  3.31355e-15
      5264.00  3.30128e-15
      5266.00  3.30644e-15
      5268.00  3.39403e-15
      5270.00  3.38469e-15
      5272.00  3.40743e-15
      5274.00  3.41455e-15
      5276.00  3.40578e-15
      5278.00  3.46167e-15
      5280.00  3.43454e-15
      5282.00  3.41192e-15
      5284.00  3.45839e-15
      5286.00  3.42637e-15
      5288.00  3.51870e-15
      5290.00  3.44660e-15
      5292.00  3.51543e-15
      5294.00  3.40413e-15
      5296.00  3.58816e-15
      5298.00  3.63104e-15
      5300.00  3.52236e-15
      5302.00  3.47803e-15
      5304.00  3.64977e-15
      5306.00  3.64782e-15
      5308.00  3.52182e-15
      5310.00  3.54452e-15
      5312.00  3.53933e-15
      5314.00  3.46354e-15
      5316.00  3.54960e-15
      5318.00  3.59542e-15
      5320.00  3.45235e-15
      5322.00  3.40373e-15
      5324.00  3.43072e-15
      5326.00  3.46441e-15
      5328.00  3.23968e-15
      5330.00  3.25905e-15
      5332.00  3.15622e-15
      5334.00  3.17590e-15
      5336.00  3.26536e-15
      5338.00  3.08959e-15
      5340.00  3.01851e-15
      5342.00  2.94961e-15
      5344.00  2.88121e-15
      5346.00  2.90335e-15
      5348.00  2.83921e-15
      5350.00  2.84122e-15
      5352.00  2.82115e-15
      5354.00  2.78304e-15
      5356.00  2.67546e-15
      5358.00  2.58621e-15
      5360.00  2.58566e-15
      5362.00  2.60135e-15
      5364.00  2.64667e-15
      5366.00  2.61178e-15
      5368.00  2.57650e-15
      5370.00  2.55756e-15
      5372.00  2.49634e-15
      5374.00  2.54989e-15
      5376.00  2.54428e-15
      5378.00  2.51958e-15
      5380.00  2.60318e-15
      5382.00  2.61712e-15
      5384.00  2.65839e-15
      5386.00  2.56724e-15
      5388.00  2.57579e-15
      5390.00  2.56895e-15
      5392.00  2.52207e-15
      5394.00  2.55280e-15
      5396.00  2.52288e-15
      5398.00  2.44265e-15
      5400.00  2.58644e-15
      5402.00  2.56347e-15
      5404.00  2.57119e-15
      5406.00  2.54579e-15
      5408.00  2.52147e-15
      5410.00  2.47598e-15
      5412.00  2.48256e-15
      5414.00  2.46036e-15
      5416.00  2.53050e-15
      5418.00  2.52127e-15
      5420.00  2.50759e-15
      5422.00  2.49112e-15
      5424.00  2.50577e-15
      5426.00  2.52001e-15
      5428.00  2.56042e-15
      5430.00  2.56167e-15
      5432.00  2.53875e-15
      5434.00  2.68485e-15
      5436.00  2.61933e-15
      5438.00  2.60234e-15
      5440.00  2.63085e-15
      5442.00  2.63934e-15
      5444.00  2.68229e-15
      5446.00  2.64046e-15
      5448.00  2.66390e-15
      5450.00  2.69069e-15
      5452.00  2.72832e-15
      5454.00  2.75229e-15
      5456.00  2.77055e-15
      5458.00  2.77408e-15
      5460.00  2.75788e-15
      5462.00  2.74419e-15
      5464.00  2.73198e-15
      5466.00  2.71997e-15
      5468.00  2.71983e-15
      5470.00  2.73672e-15
      5472.00  2.74229e-15
      5474.00  2.73935e-15
      5476.00  2.73192e-15
      5478.00  2.72437e-15
      5480.00  2.71507e-15
      5482.00  2.70329e-15
      5484.00  2.69599e-15
      5486.00  2.67869e-15
      5488.00  2.63610e-15
      5490.00  2.55232e-15
      5492.00  2.52552e-15
      5494.00  2.52983e-15
      5496.00  2.54997e-15
      5498.00  2.58809e-15
      5500.00  2.65298e-15
      5502.00  2.66875e-15
      5504.00  2.65234e-15
      5506.00  2.63013e-15
      5508.00  2.60212e-15
      5510.00  2.56566e-15
      5512.00  2.52586e-15
      5514.00  2.46755e-15
      5516.00  2.42991e-15
      5518.00  2.41055e-15
      5520.00  2.40104e-15
      5522.00  2.39014e-15
      5524.00  2.39106e-15
      5526.00  2.37731e-15
      5528.00  2.35287e-15
      5530.00  2.32579e-15
      5532.00  2.30235e-15
      5534.00  2.27962e-15
      5536.00  2.25615e-15
      5538.00  2.22940e-15
      5540.00  2.20690e-15
      5542.00  2.19102e-15
      5544.00  2.18005e-15
      5546.00  2.17334e-15
      5548.00  2.18589e-15
      5550.00  2.17701e-15
      5552.00  2.13586e-15
      5554.00  2.07698e-15
      5556.00  2.05325e-15
      5558.00  2.04900e-15
      5560.00  2.05056e-15
      5562.00  2.06362e-15
      5564.00  2.08297e-15
      5566.00  2.09789e-15
      5568.00  2.11630e-15
      5570.00  2.12781e-15
      5572.00  2.13860e-15
      5574.00  2.14188e-15
      5576.00  2.12876e-15
      5578.00  2.08212e-15
      5580.00  2.09541e-15
      5582.00  2.16088e-15
      5584.00  2.22110e-15
      5586.00  2.26044e-15
      5588.00  2.29265e-15
      5590.00  2.30565e-15
      5592.00  2.28677e-15
      5594.00  2.28278e-15
      5596.00  2.29223e-15
      5598.00  2.31145e-15
      5600.00  2.35208e-15
      5602.00  2.43103e-15
      5604.00  2.48447e-15
      5606.00  2.51872e-15
      5608.00  2.54479e-15
      5610.00  2.57551e-15
      5612.00  2.60117e-15
      5614.00  2.63490e-15
      5616.00  2.68333e-15
      5618.00  2.72333e-15
      5620.00  2.73555e-15
      5622.00  2.71755e-15
      5624.00  2.72500e-15
      5626.00  2.74369e-15
      5628.00  2.76328e-15
      5630.00  2.78074e-15
      5632.00  2.79830e-15
      5634.00  2.81746e-15
      5636.00  2.83806e-15
      5638.00  2.85906e-15
      5640.00  2.88055e-15
      5642.00  2.90255e-15
      5644.00  2.92452e-15
      5646.00  2.94619e-15
      5648.00  2.96899e-15
      5650.00  2.99208e-15
      5652.00  3.01644e-15
      5654.00  3.04386e-15
      5656.00  3.08203e-15
      5658.00  3.10396e-15
      5660.00  3.12108e-15
      5662.00  3.12619e-15
      5664.00  3.11176e-15
      5666.00  3.06966e-15
      5668.00  3.05420e-15
      5670.00  3.04680e-15
      5672.00  3.04915e-15
      5674.00  3.06517e-15
      5676.00  3.09560e-15
      5678.00  3.10774e-15
      5680.00  3.11446e-15
      5682.00  3.11222e-15
      5684.00  3.09563e-15
      5686.00  3.07090e-15
      5688.00  3.06514e-15
      5690.00  3.07365e-15
      5692.00  3.07895e-15
      5694.00  3.08310e-15
      5696.00  3.08889e-15
      5698.00  3.09931e-15
      5700.00  3.12771e-15
      5702.00  3.12718e-15
      5704.00  3.09986e-15
      5706.00  3.07301e-15
      5708.00  3.06738e-15
      5710.00  3.08153e-15
      5712.00  3.07060e-15
      5714.00  3.03565e-15
      5716.00  3.01174e-15
      5718.00  3.01318e-15
      5720.00  3.03380e-15
      5722.00  3.02288e-15
      5724.00  2.98682e-15
      5726.00  2.95812e-15
      5728.00  2.93263e-15
      5730.00  2.91081e-15
      5732.00  2.91118e-15
      5734.00  2.94942e-15
      5736.00  2.95661e-15
      5738.00  2.93792e-15
      5740.00  2.91042e-15
      5742.00  2.89517e-15
      5744.00  2.88228e-15
      5746.00  2.87345e-15
      5748.00  2.87488e-15
      5750.00  2.87151e-15
      5752.00  2.85180e-15
      5754.00  2.81499e-15
      5756.00  2.79419e-15
      5758.00  2.77479e-15
      5760.00  2.76608e-15
      5762.00  2.77442e-15
      5764.00  2.79847e-15
      5766.00  2.80158e-15
      5768.00  2.79389e-15
      5770.00  2.78370e-15
      5772.00  2.76996e-15
      5774.00  2.75275e-15
      5776.00  2.73618e-15
      5778.00  2.70783e-15
      5780.00  2.70033e-15
      5782.00  2.71898e-15
      5784.00  2.74118e-15
      5786.00  2.73568e-15
      5788.00  2.70466e-15
      5790.00  2.68631e-15
      5792.00  2.66790e-15
      5794.00  2.65123e-15
      5796.00  2.63747e-15
      5798.00  2.62614e-15
      5800.00  2.61644e-15
      5802.00  2.60893e-15
      5804.00  2.60285e-15
      5806.00  2.60009e-15
      5808.00  2.60093e-15
      5810.00  2.58769e-15
      5812.00  2.56092e-15
      5814.00  2.53688e-15
      5816.00  2.51622e-15
      5818.00  2.49585e-15
      5820.00  2.47048e-15
      5822.00  2.44270e-15
      5824.00  2.41097e-15
      5826.00  2.36933e-15
      5828.00  2.32943e-15
      5830.00  2.30802e-15
      5832.00  2.31544e-15
      5834.00  2.29310e-15
      5836.00  2.24733e-15
      5838.00  2.20543e-15
      5840.00  2.18593e-15
      5842.00  2.18529e-15
      5844.00  2.16982e-15
      5846.00  2.14789e-15
      5848.00  2.12691e-15
      5850.00  2.10766e-15
      5852.00  2.08870e-15
      5854.00  2.07631e-15
      5856.00  2.07350e-15
      5858.00  2.06539e-15
      5860.00  2.04910e-15
      5862.00  2.03041e-15
      5864.00  2.02503e-15
      5866.00  2.03145e-15
      5868.00  2.03542e-15
      5870.00  2.04167e-15
      5872.00  2.04738e-15
      5874.00  2.04786e-15
      5876.00  2.04409e-15
      5878.00  2.03986e-15
      5880.00  2.03203e-15
      5882.00  2.02507e-15
      5884.00  2.02083e-15
      5886.00  2.01544e-15
      5888.00  2.02289e-15
      5890.00  2.04623e-15
      5892.00  2.06544e-15
      5894.00  2.07467e-15
      5896.00  2.07792e-15
      5898.00  2.09117e-15
      5900.00  2.10583e-15
      5902.00  2.12991e-15
      5904.00  2.16771e-15
      5906.00  2.21252e-15
      5908.00  2.24358e-15
      5910.00  2.26013e-15
      5912.00  2.28962e-15
      5914.00  2.33641e-15
      5916.00  2.38029e-15
      5918.00  2.39533e-15
      5920.00  2.37138e-15
      5922.00  2.38246e-15
      5924.00  2.41315e-15
      5926.00  2.44533e-15
      5928.00  2.46877e-15
      5930.00  2.48979e-15
      5932.00  2.50647e-15
      5934.00  2.51627e-15
      5936.00  2.52747e-15
      5938.00  2.54349e-15
      5940.00  2.56248e-15
      5942.00  2.56924e-15
      5944.00  2.55846e-15
      5946.00  2.56088e-15
      5948.00  2.58031e-15
      5950.00  2.60662e-15
      5952.00  2.61605e-15
      5954.00  2.61310e-15
      5956.00  2.61304e-15
      5958.00  2.61286e-15
      5960.00  2.61146e-15
      5962.00  2.60812e-15
      5964.00  2.60310e-15
      5966.00  2.59668e-15
      5968.00  2.58533e-15
      5970.00  2.57702e-15
      5972.00  2.57692e-15
      5974.00  2.58456e-15
      5976.00  2.58656e-15
      5978.00  2.58399e-15
      5980.00  2.58586e-15
      5982.00  2.59366e-15
      5984.00  2.60574e-15
      5986.00  2.62250e-15
      5988.00  2.65147e-15
      5990.00  2.67074e-15
      5992.00  2.67911e-15
      5994.00  2.68209e-15
      5996.00  2.69049e-15
      5998.00  2.70540e-15
      6000.00  2.71015e-15
      6002.00  2.70338e-15
      6004.00  2.69542e-15
      6006.00  2.69867e-15
      6008.00  2.71819e-15
      6010.00  2.71657e-15
      6012.00  2.69569e-15
      6014.00  2.67877e-15
      6016.00  2.67982e-15
      6018.00  2.69586e-15
      6020.00  2.69803e-15
      6022.00  2.69188e-15
      6024.00  2.68842e-15
      6026.00  2.69073e-15
      6028.00  2.69643e-15
      6030.00  2.69564e-15
      6032.00  2.68930e-15
      6034.00  2.68503e-15
      6036.00  2.68449e-15
      6038.00  2.68397e-15
      6040.00  2.67440e-15
      6042.00  2.64899e-15
      6044.00  2.63983e-15
      6046.00  2.64724e-15
      6048.00  2.65530e-15
      6050.00  2.64557e-15
      6052.00  2.61062e-15
      6054.00  2.60675e-15
      6056.00  2.62851e-15
      6058.00  2.64676e-15
      6060.00  2.64434e-15
      6062.00  2.62492e-15
      6064.00  2.62540e-15
      6066.00  2.64416e-15
      6068.00  2.65252e-15
      6070.00  2.64336e-15
      6072.00  2.62271e-15
      6074.00  2.61188e-15
      6076.00  2.60023e-15
      6078.00  2.59589e-15
      6080.00  2.60179e-15
      6082.00  2.61223e-15
      6084.00  2.61290e-15
      6086.00  2.61041e-15
      6088.00  2.60228e-15
      6090.00  2.58616e-15
      6092.00  2.56788e-15
      6094.00  2.55363e-15
      6096.00  2.53312e-15
      6098.00  2.53253e-15
      6100.00  2.55934e-15
      6102.00  2.57623e-15
      6104.00  2.56116e-15
      6106.00  2.51754e-15
      6108.00  2.50259e-15
      6110.00  2.50438e-15
      6112.00  2.50307e-15
      6114.00  2.49707e-15
      6116.00  2.48930e-15
      6118.00  2.47222e-15
      6120.00  2.44186e-15
      6122.00  2.41766e-15
      6124.00  2.39963e-15
      6126.00  2.38367e-15
      6128.00  2.36310e-15
      6130.00  2.34003e-15
      6132.00  2.31635e-15
      6134.00  2.29005e-15
      6136.00  2.26419e-15
      6138.00  2.24253e-15
      6140.00  2.22845e-15
      6142.00  2.20331e-15
      6144.00  2.17336e-15
      6146.00  2.13785e-15
      6148.00  2.09543e-15
      6150.00  2.04447e-15
      6152.00  1.99927e-15
      6154.00  1.95878e-15
      6156.00  1.91283e-15
      6158.00  1.86045e-15
      6160.00  1.80318e-15
      6162.00  1.73916e-15
      6164.00  1.65773e-15
      6166.00  1.59173e-15
      6168.00  1.54215e-15
      6170.00  1.50030e-15
      6172.00  1.45051e-15
      6174.00  1.40046e-15
      6176.00  1.34627e-15
      6178.00  1.28266e-15
      6180.00  1.22226e-15
      6182.00  1.17904e-15
      6184.00  1.15435e-15
      6186.00  1.11866e-15
      6188.00  1.07759e-15
      6190.00  1.04025e-15
      6192.00  1.01130e-15
      6194.00  9.89086e-16
      6196.00  9.65714e-16
      6198.00  9.45073e-16
      6200.00  9.23990e-16
      6202.00  9.01008e-16
      6204.00  8.77234e-16
      6206.00  8.60066e-16
      6208.00  8.50111e-16
      6210.00  8.37661e-16
      6212.00  8.21924e-16
      6214.00  8.06328e-16
      6216.00  7.97519e-16
      6218.00  7.96561e-16
      6220.00  7.91642e-16
      6222.00  7.85587e-16
      6224.00  7.78927e-16
      6226.00  7.71818e-16
      6228.00  7.62866e-16
      6230.00  7.56975e-16
      6232.00  7.51720e-16
      6234.00  7.49144e-16
      6236.00  7.50394e-16
      6238.00  7.55304e-16
      6240.00  7.60336e-16
      6242.00  7.65451e-16
      6244.00  7.74003e-16
      6246.00  7.86184e-16
      6248.00  8.01554e-16
      6250.00  8.21027e-16
      6252.00  8.47228e-16
      6254.00  8.71530e-16
      6256.00  8.95271e-16
      6258.00  9.18520e-16
      6260.00  9.39824e-16
      6262.00  9.60198e-16
      6264.00  9.78357e-16
      6266.00  9.92739e-16
      6268.00  1.00725e-15
      6270.00  1.02558e-15
      6272.00  1.04398e-15
      6274.00  1.06979e-15
      6276.00  1.10540e-15
      6278.00  1.13935e-15
      6280.00  1.16651e-15
      6282.00  1.18945e-15
      6284.00  1.21340e-15
      6286.00  1.23888e-15
      6288.00  1.25967e-15
      6290.00  1.27220e-15
      6292.00  1.27937e-15
      6294.00  1.30028e-15
      6296.00  1.33014e-15
      6298.00  1.36207e-15
      6300.00  1.39912e-15
      6302.00  1.43834e-15
      6304.00  1.47177e-15
      6306.00  1.50038e-15
      6308.00  1.53148e-15
      6310.00  1.56451e-15
      6312.00  1.59653e-15
      6314.00  1.62458e-15
      6316.00  1.64710e-15
      6318.00  1.67569e-15
      6320.00  1.71271e-15
      6322.00  1.74333e-15
      6324.00  1.75896e-15
      6326.00  1.76017e-15
      6328.00  1.78080e-15
      6330.00  1.81707e-15
      6332.00  1.84769e-15
      6334.00  1.86957e-15
      6336.00  1.88687e-15
      6338.00  1.90845e-15
      6340.00  1.93191e-15
      6342.00  1.95455e-15
      6344.00  1.97561e-15
      6346.00  1.99701e-15
      6348.00  2.02259e-15
      6350.00  2.05420e-15
      6352.00  2.08101e-15
      6354.00  2.10905e-15
      6356.00  2.13193e-15
      6358.00  2.14282e-15
      6360.00  2.13836e-15
      6362.00  2.14497e-15
      6364.00  2.15262e-15
      6366.00  2.16493e-15
      6368.00  2.18478e-15
      6370.00  2.21286e-15
      6372.00  2.23137e-15
      6374.00  2.24657e-15
      6376.00  2.25822e-15
      6378.00  2.26516e-15
      6380.00  2.26827e-15
      6382.00  2.27457e-15
      6384.00  2.28315e-15
      6386.00  2.28888e-15
      6388.00  2.29001e-15
      6390.00  2.29078e-15
      6392.00  2.29947e-15
      6394.00  2.31705e-15
      6396.00  2.32951e-15
      6398.00  2.33807e-15
      6400.00  2.34833e-15
      6402.00  2.36598e-15
      6404.00  2.39587e-15
      6406.00  2.40735e-15
      6408.00  2.40668e-15
      6410.00  2.40289e-15
      6412.00  2.39797e-15
      6414.00  2.38846e-15
      6416.00  2.38852e-15
      6418.00  2.39912e-15
      6420.00  2.40426e-15
      6422.00  2.40042e-15
      6424.00  2.39195e-15
      6426.00  2.39404e-15
      6428.00  2.40398e-15
      6430.00  2.41285e-15
      6432.00  2.42668e-15
      6434.00  2.43825e-15
      6436.00  2.43166e-15
      6438.00  2.39924e-15
      6440.00  2.38630e-15
      6442.00  2.38048e-15
      6444.00  2.38087e-15
      6446.00  2.38802e-15
      6448.00  2.40774e-15
      6450.00  2.41540e-15
      6452.00  2.41686e-15
      6454.00  2.41741e-15
      6456.00  2.42019e-15
      6458.00  2.42497e-15
      6460.00  2.41739e-15
      6462.00  2.39397e-15
      6464.00  2.37788e-15
      6466.00  2.37065e-15
      6468.00  2.36873e-15
      6470.00  2.36966e-15
      6472.00  2.38230e-15
      6474.00  2.38321e-15
      6476.00  2.36993e-15
      6478.00  2.35362e-15
      6480.00  2.35313e-15
      6482.00  2.37016e-15
      6484.00  2.37395e-15
      6486.00  2.37243e-15
      6488.00  2.36748e-15
      6490.00  2.35978e-15
      6492.00  2.34482e-15
      6494.00  2.33973e-15
      6496.00  2.34502e-15
      6498.00  2.34558e-15
      6500.00  2.33444e-15
      6502.00  2.31372e-15
      6504.00  2.30537e-15
      6506.00  2.30185e-15
      6508.00  2.30278e-15
      6510.00  2.31080e-15
      6512.00  2.32358e-15
      6514.00  2.32649e-15
      6516.00  2.32664e-15
      6518.00  2.31946e-15
      6520.00  2.29958e-15
      6522.00  2.27747e-15
      6524.00  2.27227e-15
      6526.00  2.28500e-15
      6528.00  2.28646e-15
      6530.00  2.28612e-15
      6532.00  2.28182e-15
      6534.00  2.27081e-15
      6536.00  2.24929e-15
      6538.00  2.23922e-15
      6540.00  2.23639e-15
      6542.00  2.23339e-15
      6544.00  2.22888e-15
      6546.00  2.22519e-15
      6548.00  2.21251e-15
      6550.00  2.18443e-15
      6552.00  2.16808e-15
      6554.00  2.16850e-15
      6556.00  2.17815e-15
      6558.00  2.17360e-15
      6560.00  2.16211e-15
      6562.00  2.14877e-15
      6564.00  2.12815e-15
      6566.00  2.10784e-15
      6568.00  2.10205e-15
      6570.00  2.11028e-15
      6572.00  2.11464e-15
      6574.00  2.12216e-15
      6576.00  2.12902e-15
      6578.00  2.13243e-15
      6580.00  2.13559e-15
      6582.00  2.13105e-15
      6584.00  2.11740e-15
      6586.00  2.10428e-15
      6588.00  2.09369e-15
      6590.00  2.08300e-15
      6592.00  2.08051e-15
      6594.00  2.09155e-15
      6596.00  2.09331e-15
      6598.00  2.08373e-15
      6600.00  2.06731e-15
      6602.00  2.05282e-15
      6604.00  2.03418e-15
      6606.00  2.01944e-15
      6608.00  2.00687e-15
      6610.00  1.99669e-15
      6612.00  1.99002e-15
      6614.00  1.98685e-15
      6616.00  1.98567e-15
      6618.00  1.98989e-15
      6620.00  1.99303e-15
      6622.00  1.99020e-15
      6624.00  1.98366e-15
      6626.00  1.97482e-15
      6628.00  1.95473e-15
      6630.00  1.94475e-15
      6632.00  1.95590e-15
      6634.00  1.98556e-15
      6636.00  1.98469e-15
      6638.00  1.95790e-15
      6640.00  1.94039e-15
      6642.00  1.93418e-15
      6644.00  1.93319e-15
      6646.00  1.92848e-15
      6648.00  1.92699e-15
      6650.00  1.91826e-15
      6652.00  1.90088e-15
      6654.00  1.88101e-15
      6656.00  1.86797e-15
      6658.00  1.85465e-15
      6660.00  1.85068e-15
      6662.00  1.85435e-15
      6664.00  1.86300e-15
      6666.00  1.87651e-15
      6668.00  1.90416e-15
      6670.00  1.90495e-15
      6672.00  1.88550e-15
      6674.00  1.86322e-15
      6676.00  1.84001e-15
      6678.00  1.81116e-15
      6680.00  1.80234e-15
      6682.00  1.81438e-15
      6684.00  1.81967e-15
      6686.00  1.81677e-15
      6688.00  1.81052e-15
      6690.00  1.80822e-15
      6692.00  1.80788e-15
      6694.00  1.80695e-15
      6696.00  1.80732e-15
      6698.00  1.80657e-15
      6700.00  1.80064e-15
      6702.00  1.78782e-15
      6704.00  1.77932e-15
      6706.00  1.77485e-15
      6708.00  1.76744e-15
      6710.00  1.75126e-15
      6712.00  1.72443e-15
      6714.00  1.70980e-15
      6716.00  1.69823e-15
      6718.00  1.69375e-15
      6720.00  1.70053e-15
      6722.00  1.71849e-15
      6724.00  1.71867e-15
      6726.00  1.70429e-15
      6728.00  1.69510e-15
      6730.00  1.69283e-15
      6732.00  1.69306e-15
      6734.00  1.68629e-15
      6736.00  1.67187e-15
      6738.00  1.66292e-15
      6740.00  1.66122e-15
      6742.00  1.65856e-15
      6744.00  1.64319e-15
      6746.00  1.60227e-15
      6748.00  1.59363e-15
      6750.00  1.61064e-15
      6752.00  1.62800e-15
      6754.00  1.62840e-15
      6756.00  1.61943e-15
      6758.00  1.60998e-15
      6760.00  1.59171e-15
      6762.00  1.57838e-15
      6764.00  1.57474e-15
      6766.00  1.57816e-15
      6768.00  1.57561e-15
      6770.00  1.57421e-15
      6772.00  1.56699e-15
      6774.00  1.55073e-15
      6776.00  1.53004e-15
      6778.00  1.52092e-15
      6780.00  1.51993e-15
      6782.00  1.51858e-15
      6784.00  1.52026e-15
      6786.00  1.52213e-15
      6788.00  1.51930e-15
      6790.00  1.50577e-15
      6792.00  1.50794e-15
      6794.00  1.52502e-15
      6796.00  1.54024e-15
      6798.00  1.54253e-15
      6800.00  1.53675e-15
      6802.00  1.52903e-15
      6804.00  1.51029e-15
      6806.00  1.49857e-15
      6808.00  1.50017e-15
      6810.00  1.51160e-15
      6812.00  1.51344e-15
      6814.00  1.51213e-15
      6816.00  1.50914e-15
      6818.00  1.50482e-15
      6820.00  1.49854e-15
      6822.00  1.48845e-15
      6824.00  1.46799e-15
      6826.00  1.45922e-15
      6828.00  1.46033e-15
      6830.00  1.46566e-15
      6832.00  1.46849e-15
      6834.00  1.47750e-15
      6836.00  1.47420e-15
      6838.00  1.46121e-15
      6840.00  1.44571e-15
      6842.00  1.43154e-15
      6844.00  1.41410e-15
      6846.00  1.40517e-15
      6848.00  1.40281e-15
      6850.00  1.40190e-15
      6852.00  1.40207e-15
      6854.00  1.40433e-15
      6856.00  1.40267e-15
      6858.00  1.39999e-15
      6860.00  1.39423e-15
      6862.00  1.38390e-15
      6864.00  1.37112e-15
      6866.00  1.36302e-15
      6868.00  1.35869e-15
      6870.00  1.35234e-15
      6872.00  1.34439e-15
      6874.00  1.33650e-15
      6876.00  1.33060e-15
      6878.00  1.32733e-15
      6880.00  1.32167e-15
      6882.00  1.31551e-15
      6884.00  1.30814e-15
      6886.00  1.29853e-15
      6888.00  1.28499e-15
      6890.00  1.27883e-15
      6892.00  1.27897e-15
      6894.00  1.27840e-15
      6896.00  1.27510e-15
      6898.00  1.27047e-15
      6900.00  1.26978e-15
      6902.00  1.27320e-15
      6904.00  1.27486e-15
      6906.00  1.27559e-15
      6908.00  1.27527e-15
      6910.00  1.27143e-15
      6912.00  1.26366e-15
      6914.00  1.25621e-15
      6916.00  1.24585e-15
      6918.00  1.23681e-15
      6920.00  1.23504e-15
      6922.00  1.24117e-15
      6924.00  1.24396e-15
      6926.00  1.24894e-15
      6928.00  1.25152e-15
      6930.00  1.24871e-15
      6932.00  1.24109e-15
      6934.00  1.23450e-15
      6936.00  1.22332e-15
      6938.00  1.21708e-15
      6940.00  1.21892e-15
      6942.00  1.22683e-15
      6944.00  1.23010e-15
      6946.00  1.23191e-15
      6948.00  1.23422e-15
      6950.00  1.23922e-15
      6952.00  1.24376e-15
      6954.00  1.23785e-15
      6956.00  1.21628e-15
      6958.00  1.20710e-15
      6960.00  1.20510e-15
      6962.00  1.20769e-15
      6964.00  1.21307e-15
      6966.00  1.22856e-15
      6968.00  1.23206e-15
      6970.00  1.22921e-15
      6972.00  1.22311e-15
      6974.00  1.21467e-15
      6976.00  1.20074e-15
      6978.00  1.19488e-15
      6980.00  1.19714e-15
      6982.00  1.19547e-15
      6984.00  1.18643e-15
      6986.00  1.17254e-15
      6988.00  1.16427e-15
      6990.00  1.15535e-15
      6992.00  1.15281e-15
      6994.00  1.16025e-15
      6996.00  1.17167e-15
      6998.00  1.16993e-15
      7000.00  1.15263e-15
      7002.00  1.14816e-15
      7004.00  1.15361e-15
      7006.00  1.16152e-15
      7008.00  1.16386e-15
      7010.00  1.16443e-15
      7012.00  1.16298e-15
      7014.00  1.15783e-15
      7016.00  1.15306e-15
      7018.00  1.15144e-15
      7020.00  1.15318e-15
      7022.00  1.14840e-15
      7024.00  1.13798e-15
      7026.00  1.12836e-15
      7028.00  1.11888e-15
      7030.00  1.10888e-15
      7032.00  1.11085e-15
      7034.00  1.13265e-15
      7036.00  1.13874e-15
      7038.00  1.12684e-15
      7040.00  1.10670e-15
      7042.00  1.09792e-15
      7044.00  1.09278e-15
      7046.00  1.09070e-15
      7048.00  1.09410e-15
      7050.00  1.09852e-15
      7052.00  1.09858e-15
      7054.00  1.09604e-15
      7056.00  1.09357e-15
      7058.00  1.08787e-15
      7060.00  1.08468e-15
      7062.00  1.08814e-15
      7064.00  1.09918e-15
      7066.00  1.09905e-15
      7068.00  1.08548e-15
      7070.00  1.08114e-15
      7072.00  1.09346e-15
      7074.00  1.11705e-15
      7076.00  1.12214e-15
      7078.00  1.11660e-15
      7080.00  1.10912e-15
      7082.00  1.09632e-15
      7084.00  1.08118e-15
      7086.00  1.07469e-15
      7088.00  1.07552e-15
      7090.00  1.07402e-15
      7092.00  1.07367e-15
      7094.00  1.07234e-15
      7096.00  1.06694e-15
      7098.00  1.05358e-15
      7100.00  1.05120e-15
      7102.00  1.05659e-15
      7104.00  1.06312e-15
      7106.00  1.06801e-15
      7108.00  1.07417e-15
      7110.00  1.07493e-15
      7112.00  1.07239e-15
      7114.00  1.06702e-15
      7116.00  1.05720e-15
      7118.00  1.04356e-15
      7120.00  1.03797e-15
      7122.00  1.03747e-15
      7124.00  1.03801e-15
      7126.00  1.04203e-15
      7128.00  1.04692e-15
      7130.00  1.04447e-15
      7132.00  1.03376e-15
      7134.00  1.02796e-15
      7136.00  1.02361e-15
      7138.00  1.02100e-15
      7140.00  1.02100e-15
      7142.00  1.02549e-15
      7144.00  1.02622e-15
      7146.00  1.02684e-15
      7148.00  1.02493e-15
      7150.00  1.01831e-15
      7152.00  1.00569e-15
      7154.00  1.00235e-15
      7156.00  1.00879e-15
      7158.00  1.00985e-15
      7160.00  1.00028e-15
      7162.00  9.84189e-16
      7164.00  9.84746e-16
      7166.00  1.00266e-15
      7168.00  1.01119e-15
      7170.00  1.01110e-15
      7172.00  1.00712e-15
      7174.00  1.00585e-15
      7176.00  1.00425e-15
      7178.00  1.00335e-15
      7180.00  1.00416e-15
      7182.00  1.00410e-15
      7184.00  1.00018e-15
      7186.00  9.89944e-16
      7188.00  9.87617e-16
      7190.00  9.92761e-16
      7192.00  9.95577e-16
      7194.00  9.89953e-16
      7196.00  9.75829e-16
      7198.00  9.76531e-16
      7200.00  9.90894e-16
      7202.00  1.00077e-15
      7204.00  1.00325e-15
      7206.00  1.00172e-15
      7208.00  1.00201e-15
      7210.00  1.00206e-15
      7212.00  1.00158e-15
      7214.00  9.99585e-16
      7216.00  9.97596e-16
      7218.00  9.99426e-16
      7220.00  1.00629e-15
      7222.00  1.00955e-15
      7224.00  1.00987e-15
      7226.00  1.01048e-15
      7228.00  1.01477e-15
      7230.00  1.02408e-15
      7232.00  1.02734e-15
      7234.00  1.02762e-15
      7236.00  1.02606e-15
      7238.00  1.02268e-15
      7240.00  1.01639e-15
      7242.00  1.01370e-15
      7244.00  1.01211e-15
      7246.00  1.01234e-15
      7248.00  1.01539e-15
      7250.00  1.02061e-15
      7252.00  1.02185e-15
      7254.00  1.02008e-15
      7256.00  1.01913e-15
      7258.00  1.02078e-15
      7260.00  1.02142e-15
      7262.00  1.01300e-15
      7264.00  9.89011e-16
      7266.00  9.80051e-16
      7268.00  9.82305e-16
      7270.00  9.87003e-16
      7272.00  9.86027e-16
      7274.00  9.83049e-16
      7276.00  9.79160e-16
      7278.00  9.70971e-16
      7280.00  9.65814e-16
      7282.00  9.67617e-16
      7284.00  9.75611e-16
      7286.00  9.78404e-16
      7288.00  9.79095e-16
      7290.00  9.79881e-16
      7292.00  9.81035e-16
      7294.00  9.82172e-16
      7296.00  9.82809e-16
      7298.00  9.83879e-16
      7300.00  9.83186e-16
      7302.00  9.78456e-16
      7304.00  9.73747e-16
      7306.00  9.78098e-16
      7308.00  9.96171e-16
      7310.00  1.00168e-15
      7312.00  1.00012e-15
      7314.00  9.94750e-16
      7316.00  9.87707e-16
      7318.00  9.72516e-16
      7320.00  9.69963e-16
      7322.00  9.76560e-16
      7324.00  9.84520e-16
      7326.00  9.92078e-16
      7328.00  1.00296e-15
      7330.00  1.00085e-15
      7332.00  9.82889e-16
      7334.00  9.71983e-16
      7336.00  9.72362e-16
      7338.00  9.78947e-16
      7340.00  9.76900e-16
      7342.00  9.65755e-16
      7344.00  9.63148e-16
      7346.00  9.70106e-16
      7348.00  9.80350e-16
      7350.00  9.82749e-16
      7352.00  9.80512e-16
      7354.00  9.78187e-16
      7356.00  9.73994e-16
      7358.00  9.69055e-16
      7360.00  9.64318e-16
      7362.00  9.57561e-16
      7364.00  9.55607e-16
      7366.00  9.58343e-16
      7368.00  9.60666e-16
      7370.00  9.60646e-16
      7372.00  9.59618e-16
      7374.00  9.57516e-16
      7376.00  9.54106e-16
      7378.00  9.50082e-16
      7380.00  9.44941e-16
      7382.00  9.38992e-16
      7384.00  9.35568e-16
      7386.00  9.31887e-16
      7388.00  9.32436e-16
      7390.00  9.39718e-16
      7392.00  9.48497e-16
      7394.00  9.48258e-16
      7396.00  9.40410e-16
      7398.00  9.34428e-16
      7400.00  9.27388e-16
      7402.00  9.19913e-16
      7404.00  9.12428e-16
      7406.00  9.02287e-16
      7408.00  8.99131e-16
      7410.00  9.03996e-16
      7412.00  9.06682e-16
      7414.00  9.03057e-16
      7416.00  8.95280e-16
      7418.00  8.88403e-16
      7420.00  8.78141e-16
      7422.00  8.71379e-16
      7424.00  8.69827e-16
      7426.00  8.71477e-16
      7428.00  8.68646e-16
      7430.00  8.64480e-16
      7432.00  8.58260e-16
      7434.00  8.47818e-16
      7436.00  8.36879e-16
      7438.00  8.32983e-16
      7440.00  8.41239e-16
      7442.00  8.35532e-16
      7444.00  8.16087e-16
      7446.00  7.98006e-16
      7448.00  7.94747e-16
      7450.00  8.04927e-16
      7452.00  8.06609e-16
      7454.00  8.06697e-16
      7456.00  8.05742e-16
      7458.00  8.04198e-16
      7460.00  8.02157e-16
      7462.00  7.96690e-16
      7464.00  7.83126e-16
      7466.00  7.77011e-16
      7468.00  7.82403e-16
      7470.00  7.94390e-16
      7472.00  7.94061e-16
      7474.00  7.83997e-16
      7476.00  7.77767e-16
      7478.00  7.74661e-16
      7480.00  7.71758e-16
      7482.00  7.65044e-16
      7484.00  7.53309e-16
      7486.00  7.45761e-16
      7488.00  7.39824e-16
      7490.00  7.35384e-16
      7492.00  7.32300e-16
      7494.00  7.29597e-16
      7496.00  7.31574e-16
      7498.00  7.41270e-16
      7500.00  7.47687e-16
      7502.00  7.46523e-16
      7504.00  7.39927e-16
      7506.00  7.35230e-16
      7508.00  7.28991e-16
      7510.00  7.23624e-16
      7512.00  7.19319e-16
      7514.00  7.15668e-16
      7516.00  7.12118e-16
      7518.00  7.08250e-16
      7520.00  7.05930e-16
      7522.00  7.05044e-16
      7524.00  7.05195e-16
      7526.00  7.05857e-16
      7528.00  7.09535e-16
      7530.00  7.09024e-16
      7532.00  7.06297e-16
      7534.00  7.01598e-16
      7536.00  6.94704e-16
      7538.00  6.83299e-16
      7540.00  6.77553e-16
      7542.00  6.77173e-16
      7544.00  6.74616e-16
      7546.00  6.66257e-16
      7548.00  6.53063e-16
      7550.00  6.48171e-16
      7552.00  6.49656e-16
      7554.00  6.50143e-16
      7556.00  6.50735e-16
      7558.00  6.51163e-16
      7560.00  6.44236e-16
      7562.00  6.27996e-16
      7564.00  6.16440e-16
      7566.00  6.08240e-16
      7568.00  6.01082e-16
      7570.00  5.92274e-16
      7572.00  5.81746e-16
      7574.00  5.73400e-16
      7576.00  5.66596e-16
      7578.00  5.60235e-16
      7580.00  5.53185e-16
      7582.00  5.44137e-16
      7584.00  5.41192e-16
      7586.00  5.43836e-16
      7588.00  5.46711e-16
      7590.00  5.49347e-16
      7592.00  5.53594e-16
      7594.00  5.48030e-16
      7596.00  5.40438e-16
      7598.00  5.20417e-16
      7600.00  4.80431e-16
      7602.00  4.28951e-16
      7604.00  4.04988e-16
      7606.00  3.98949e-16
      7608.00  3.94735e-16
      7610.00  3.94157e-16
      7612.00  3.99555e-16
      7614.00  4.13420e-16
      7616.00  4.47159e-16
      7618.00  4.61094e-16
      7620.00  4.65387e-16
      7622.00  4.63642e-16
      7624.00  4.57219e-16
      7626.00  4.38744e-16
      7628.00  4.37127e-16
      7630.00  4.46476e-16
      7632.00  4.57723e-16
      7634.00  4.68359e-16
      7636.00  4.80450e-16
      7638.00  4.93412e-16
      7640.00  5.13422e-16
      7642.00  5.23927e-16
      7644.00  5.19924e-16
      7646.00  5.08372e-16
      7648.00  5.14360e-16
      7650.00  5.37424e-16
      7652.00  5.49998e-16
      7654.00  5.55319e-16
      7656.00  5.57436e-16
      7658.00  5.60635e-16
      7660.00  5.58852e-16
      7662.00  5.65428e-16
      7664.00  5.80198e-16
      7666.00  5.94660e-16
      7668.00  6.02855e-16
      7670.00  6.08760e-16
      7672.00  6.08879e-16
      7674.00  6.01320e-16
      7676.00  5.93776e-16
      7678.00  5.88075e-16
      7680.00  5.82443e-16
      7682.00  5.79163e-16
      7684.00  5.75335e-16
      7686.00  5.76776e-16
      7688.00  5.86256e-16
      7690.00  6.00151e-16
      7692.00  6.04470e-16
      7694.00  6.02164e-16
      7696.00  6.00654e-16
      7698.00  5.95604e-16
      7700.00  5.91988e-16
      7702.00  5.98493e-16
      7704.00  6.19052e-16
      7706.00  6.28890e-16
      7708.00  6.34066e-16
      7710.00  6.37930e-16
      7712.00  6.42511e-16
      7714.00  6.45436e-16
      7716.00  6.52469e-16
      7718.00  6.65271e-16
      7720.00  6.74786e-16
      7722.00  6.77562e-16
      7724.00  6.75239e-16
      7726.00  6.78400e-16
      7728.00  6.86345e-16
      7730.00  6.90528e-16
      7732.00  6.88594e-16
      7734.00  6.84203e-16
      7736.00  6.89327e-16
      7738.00  7.05615e-16
      7740.00  7.14087e-16
      7742.00  7.17012e-16
      7744.00  7.17496e-16
      7746.00  7.18920e-16
      7748.00  7.19149e-16
      7750.00  7.20215e-16
      7752.00  7.21110e-16
      7754.00  7.22683e-16
      7756.00  7.25583e-16
      7758.00  7.29804e-16
      7760.00  7.33728e-16
      7762.00  7.41318e-16
      7764.00  7.43832e-16
      7766.00  7.36131e-16
      7768.00  7.19509e-16
      7770.00  7.21144e-16
      7772.00  7.39778e-16
      7774.00  7.51786e-16
      7776.00  7.56674e-16
      7778.00  7.58129e-16
      7780.00  7.60479e-16
      7782.00  7.59400e-16
      7784.00  7.62824e-16
      7786.00  7.72894e-16
      7788.00  7.82610e-16
      7790.00  7.82008e-16
      7792.00  7.70339e-16
      7794.00  7.64349e-16
      7796.00  7.55301e-16
      7798.00  7.51096e-16
      7800.00  7.58326e-16
      7802.00  7.79708e-16
      7804.00  7.85166e-16
      7806.00  7.80020e-16
      7808.00  7.76256e-16
      7810.00  7.78117e-16
      7812.00  7.83303e-16
      7814.00  7.78538e-16
      7816.00  7.60802e-16
      7818.00  7.51944e-16
      7820.00  7.52741e-16
      7822.00  7.59221e-16
      7824.00  7.65072e-16
      7826.00  7.79020e-16
      7828.00  7.82184e-16
      7830.00  7.74080e-16
      7832.00  7.63240e-16
      7834.00  7.60781e-16
      7836.00  7.60494e-16
      7838.00  7.66328e-16
      7840.00  7.81408e-16
      7842.00  7.95852e-16
      7844.00  8.03762e-16
      7846.00  8.09541e-16
      7848.00  8.07947e-16
      7850.00  7.93344e-16
      7852.00  7.84745e-16
      7854.00  7.87490e-16
      7856.00  7.97813e-16
      7858.00  8.04858e-16
      7860.00  8.14945e-16
      7862.00  8.21243e-16
      7864.00  8.23279e-16
      7866.00  8.22639e-16
      7868.00  8.22569e-16
      7870.00  8.18712e-16
      7872.00  8.20394e-16
      7874.00  8.26089e-16
      7876.00  8.34740e-16
      7878.00  8.45538e-16
      7880.00  8.66576e-16
      7882.00  8.72330e-16
      7884.00  8.67094e-16
      7886.00  8.59342e-16
      7888.00  8.54368e-16
      7890.00  8.49931e-16
      7892.00  8.42208e-16
      7894.00  8.22727e-16
      7896.00  8.16710e-16
      7898.00  8.34927e-16
      7900.00  8.72127e-16
      7902.00  8.81397e-16
      7904.00  8.68941e-16
      7906.00  8.65059e-16
      7908.00  8.70932e-16
      7910.00  8.80334e-16
      7912.00  8.82145e-16
      7914.00  8.76287e-16
      7916.00  8.76429e-16
      7918.00  8.80738e-16
      7920.00  8.86770e-16
      7922.00  8.92000e-16
      7924.00  8.98598e-16
      7926.00  9.03156e-16
      7928.00  9.07681e-16
      7930.00  9.10026e-16
      7932.00  9.08011e-16
      7934.00  8.99584e-16
      7936.00  9.01457e-16
      7938.00  9.14289e-16
      7940.00  9.21807e-16
      7942.00  9.20419e-16
      7944.00  9.13277e-16
      7946.00  9.04770e-16
      7948.00  8.86765e-16
      7950.00  8.77854e-16
      7952.00  8.78656e-16
      7954.00  8.85292e-16
      7956.00  8.90891e-16
      7958.00  9.01884e-16
      7960.00  9.07017e-16
      7962.00  9.08076e-16
      7964.00  9.06664e-16
      7966.00  9.04096e-16
      7968.00  8.92102e-16
      7970.00  8.96684e-16
      7972.00  9.20699e-16
      7974.00  9.38587e-16
      7976.00  9.34357e-16
      7978.00  9.11509e-16
      7980.00  9.00375e-16
      7982.00  8.89420e-16
      7984.00  8.82129e-16
      7986.00  8.80548e-16
      7988.00  8.83740e-16
      7990.00  8.80555e-16
      7992.00  8.68783e-16
      7994.00  8.66258e-16
      7996.00  8.75688e-16
      7998.00  8.90375e-16
      8000.00  8.94239e-16
      8002.00  8.92817e-16
      8004.00  8.88893e-16
      8006.00  8.78741e-16
      8008.00  8.68263e-16
      8010.00  8.65061e-16
      8012.00  8.68412e-16
      8014.00  8.68691e-16
      8016.00  8.70545e-16
      8018.00  8.70244e-16
      8020.00  8.65528e-16
      8022.00  8.56923e-16
      8024.00  8.48766e-16
      8026.00  8.35796e-16
      8028.00  8.27967e-16
      8030.00  8.26980e-16
      8032.00  8.31018e-16
      8034.00  8.39425e-16
      8036.00  8.60226e-16
      8038.00  8.71155e-16
      8040.00  8.73110e-16
      8042.00  8.69005e-16
      8044.00  8.61391e-16
      8046.00  8.41608e-16
      8048.00  8.33062e-16
      8050.00  8.33366e-16
      8052.00  8.36122e-16
      8054.00  8.34553e-16
      8056.00  8.31678e-16
      8058.00  8.28005e-16
      8060.00  8.23975e-16
      8062.00  8.18180e-16
      8064.00  8.09204e-16
      8066.00  7.95910e-16
      8068.00  7.89118e-16
      8070.00  7.84558e-16
      8072.00  7.83834e-16
      8074.00  7.89339e-16
      8076.00  8.00063e-16
      8078.00  8.00248e-16
      8080.00  7.89894e-16
      8082.00  7.85534e-16
      8084.00  7.87487e-16
      8086.00  7.92080e-16
      8088.00  7.92926e-16
      8090.00  7.93789e-16
      8092.00  7.91053e-16
      8094.00  7.84251e-16
      8096.00  7.76055e-16
      8098.00  7.69360e-16
      8100.00  7.61105e-16
      8102.00  7.57296e-16
      8104.00  7.57831e-16
      8106.00  7.58456e-16
      8108.00  7.56976e-16
      8110.00  7.54475e-16
      8112.00  7.52416e-16
      8114.00  7.48490e-16
      8116.00  7.47488e-16
      8118.00  7.50639e-16
      8120.00  7.56896e-16
      8122.00  7.62211e-16
      8124.00  7.74026e-16
      8126.00  7.75196e-16
      8128.00  7.64722e-16
      8130.00  7.47551e-16
      8132.00  7.33329e-16
      8134.00  7.12691e-16
      8136.00  7.02402e-16
      8138.00  6.99454e-16
      8140.00  7.01458e-16
      8142.00  7.06569e-16
      8144.00  7.20723e-16
      8146.00  7.25748e-16
      8148.00  7.26591e-16
      8150.00  7.25251e-16
      8152.00  7.22566e-16
      8154.00  7.17747e-16
      8156.00  7.12323e-16
      8158.00  7.05608e-16
      8160.00  6.98043e-16
      8162.00  6.88557e-16
      8164.00  6.77598e-16
      8166.00  6.72976e-16
      8168.00  6.72216e-16
      8170.00  6.74154e-16
      8172.00  6.82837e-16
      8174.00  6.92665e-16
      8176.00  6.88407e-16
      8178.00  6.68856e-16
      8180.00  6.57029e-16
      8182.00  6.45511e-16
      8184.00  6.37382e-16
      8186.00  6.37031e-16
      8188.00  6.48107e-16
      8190.00  6.49651e-16
      8192.00  6.45070e-16
      8194.00  6.42207e-16
      8196.00  6.45463e-16
      8198.00  6.54019e-16
      8200.00  6.56278e-16
      8202.00  6.52547e-16
      8204.00  6.52559e-16
      8206.00  6.60098e-16
      8208.00  6.72197e-16
      8210.00  6.70872e-16
      8212.00  6.57444e-16
      8214.00  6.47363e-16
      8216.00  6.37464e-16
      8218.00  6.28897e-16
      8220.00  6.27829e-16
      8222.00  6.42835e-16
      8224.00  6.39459e-16
      8226.00  6.17889e-16
      8228.00  5.95870e-16
      8230.00  5.91373e-16
      8232.00  6.00173e-16
      8234.00  6.05794e-16
      8236.00  6.16651e-16
      8238.00  6.25230e-16
      8240.00  6.28170e-16
      8242.00  6.27441e-16
      8244.00  6.24251e-16
      8246.00  6.18189e-16
      8248.00  6.09248e-16
      8250.00  5.94933e-16
      8252.00  5.76683e-16
      8254.00  5.70895e-16
      8256.00  5.81130e-16
      8258.00  5.79337e-16
      8260.00  5.62382e-16
      8262.00  5.41700e-16
      8264.00  5.39842e-16
      8266.00  5.58505e-16
      8268.00  5.63396e-16
      8270.00  5.61331e-16
      8272.00  5.56884e-16
      8274.00  5.53976e-16
      8276.00  5.51919e-16
      8278.00  5.46120e-16
      8280.00  5.34829e-16
      8282.00  5.25818e-16
      8284.00  5.22388e-16
      8286.00  5.22491e-16
      8288.00  5.25355e-16
      8290.00  5.41473e-16
      8292.00  5.43366e-16
      8294.00  5.23069e-16
      8296.00  4.88235e-16
      8298.00  4.73520e-16
      8300.00  4.71081e-16
      8302.00  4.66099e-16
      8304.00  4.59917e-16
      8306.00  4.54191e-16
      8308.00  4.50159e-16
      8310.00  4.50094e-16
      8312.00  4.45305e-16
      8314.00  4.36864e-16
      8316.00  4.27369e-16
      8318.00  4.19021e-16
      8320.00  4.09105e-16
      8322.00  4.03867e-16
      8324.00  4.04374e-16
      8326.00  4.03167e-16
      8328.00  3.96159e-16
      8330.00  3.83942e-16
      8332.00  3.80259e-16
      8334.00  3.85379e-16
      8336.00  3.85798e-16
      8338.00  3.80657e-16
      8340.00  3.71813e-16
      8342.00  3.57720e-16
      8344.00  3.26193e-16
      8346.00  3.14562e-16
      8348.00  3.25177e-16
      8350.00  3.44556e-16
      8352.00  3.48592e-16
      8354.00  3.44166e-16
      8356.00  3.41312e-16
      8358.00  3.35270e-16
      8360.00  3.30258e-16
      8362.00  3.30741e-16
      8364.00  3.37713e-16
      8366.00  3.38706e-16
      8368.00  3.36468e-16
      8370.00  3.34115e-16
      8372.00  3.32619e-16
      8374.00  3.30914e-16
      8376.00  3.31624e-16
      8378.00  3.35849e-16
      8380.00  3.38151e-16
      8382.00  3.36504e-16
      8384.00  3.32906e-16
      8386.00  3.37310e-16
      8388.00  3.48656e-16
      8390.00  3.59074e-16
      8392.00  3.72358e-16
      8394.00  3.84634e-16
      8396.00  3.86373e-16
      8398.00  3.74562e-16
      8400.00  3.71214e-16
      8402.00  3.71058e-16
      8404.00  3.72375e-16
      8406.00  3.74034e-16
      8408.00  3.77409e-16
      8410.00  3.79307e-16
      8412.00  3.79075e-16
      8414.00  3.80845e-16
      8416.00  3.87528e-16
      8418.00  3.99485e-16
      8420.00  4.00474e-16
      8422.00  3.89288e-16
      8424.00  3.84530e-16
      8426.00  3.88546e-16
      8428.00  3.97741e-16
      8430.00  4.04939e-16
      8432.00  4.14397e-16
      8434.00  4.21559e-16
      8436.00  4.27589e-16
      8438.00  4.31912e-16
      8440.00  4.32698e-16
      8442.00  4.28350e-16
      8444.00  4.26320e-16
      8446.00  4.22153e-16
      8448.00  4.20850e-16
      8450.00  4.27505e-16
      8452.00  4.44672e-16
      8454.00  4.51716e-16
      8456.00  4.55121e-16
      8458.00  4.55423e-16
      8460.00  4.52105e-16
      8462.00  4.44407e-16
      8464.00  4.40213e-16
      8466.00  4.33424e-16
      8468.00  4.33195e-16
      8470.00  4.41362e-16
      8472.00  4.55516e-16
      8474.00  4.67741e-16
      8476.00  4.87621e-16
      8478.00  4.95727e-16
      8480.00  4.91575e-16
      8482.00  4.81775e-16
      8484.00  4.76917e-16
      8486.00  4.70676e-16
      8488.00  4.68765e-16
      8490.00  4.70585e-16
      8492.00  4.73940e-16
      8494.00  4.77167e-16
      8496.00  4.82056e-16
      8498.00  4.84757e-16
      8500.00  4.84758e-16
      8502.00  4.86428e-16
      8504.00  4.91563e-16
      8506.00  4.99371e-16
      8508.00  5.06094e-16
      8510.00  5.14107e-16
      8512.00  5.20496e-16
      8514.00  5.24210e-16
      8516.00  5.26462e-16
      8518.00  5.32506e-16
      8520.00  5.43501e-16
      8522.00  5.50096e-16
      8524.00  5.51961e-16
      8526.00  5.52562e-16
      8528.00  5.57390e-16
      8530.00  5.67289e-16
      8532.00  5.72157e-16
      8534.00  5.71062e-16
      8536.00  5.72284e-16
      8538.00  5.83186e-16
      8540.00  6.04951e-16
      8542.00  6.16789e-16
      8544.00  6.25252e-16
      8546.00  6.30929e-16
      8548.00  6.32870e-16
      8550.00  6.30175e-16
      8552.00  6.34799e-16
      8554.00  6.46757e-16
      8556.00  6.54489e-16
      8558.00  6.55431e-16
      8560.00  6.53134e-16
      8562.00  6.59682e-16
      8564.00  6.74252e-16
      8566.00  6.85564e-16
      8568.00  6.95517e-16
      8570.00  7.04550e-16
      8572.00  7.12226e-16
      8574.00  7.16797e-16
      8576.00  7.24397e-16
      8578.00  7.34322e-16
      8580.00  7.44203e-16
      8582.00  7.52146e-16
      8584.00  7.58628e-16
      8586.00  7.65823e-16
      8588.00  7.74621e-16
      8590.00  7.81013e-16
      8592.00  7.82679e-16
      8594.00  7.79922e-16
      8596.00  7.84061e-16
      8598.00  7.93359e-16
      8600.00  8.01630e-16
      8602.00  8.09459e-16
      8604.00  8.16938e-16
      8606.00  8.20232e-16
      8608.00  8.17876e-16
      8610.00  8.18619e-16
      8612.00  8.21307e-16
      8614.00  8.24974e-16
      8616.00  8.28800e-16
      8618.00  8.35219e-16
      8620.00  8.37631e-16
      8622.00  8.37358e-16
      8624.00  8.35794e-16
      8626.00  8.32766e-16
      8628.00  8.21392e-16
      8630.00  8.31867e-16
      8632.00  8.66526e-16
      8634.00  8.94583e-16
      8636.00  9.07641e-16
      8638.00  9.12846e-16
      8640.00  9.06199e-16
      8642.00  8.77289e-16
      8644.00  8.58863e-16
      8646.00  8.51978e-16
      8648.00  8.51908e-16
      8650.00  8.55162e-16
      8652.00  8.69621e-16
      8654.00  8.75766e-16
      8656.00  8.74968e-16
      8658.00  8.71666e-16
      8660.00  8.71564e-16
      8662.00  8.69347e-16
      8664.00  8.73999e-16
      8666.00  8.87422e-16
      8668.00  8.99485e-16
      8670.00  9.02303e-16
      8672.00  8.97166e-16
      8674.00  8.96969e-16
      8676.00  8.94632e-16
      8678.00  8.97309e-16
      8680.00  9.09870e-16
      8682.00  9.31815e-16
      8684.00  9.35160e-16
      8686.00  9.22524e-16
      8688.00  9.14159e-16
      8690.00  9.10186e-16
      8692.00  9.08099e-16
      8694.00  9.07550e-16
      8696.00  9.11697e-16
      8698.00  9.11481e-16
      8700.00  9.06536e-16
      8702.00  9.00795e-16
      8704.00  8.99893e-16
      8706.00  9.05570e-16
      8708.00  9.04361e-16
      8710.00  8.95801e-16
      8712.00  8.90019e-16
      8714.00  8.95402e-16
      8716.00  9.13998e-16
      8718.00  9.16163e-16
      8720.00  9.06673e-16
      8722.00  8.98252e-16
      8724.00  8.94176e-16
      8726.00  8.91710e-16
      8728.00  8.90761e-16
      8730.00  8.94526e-16
      8732.00  8.94180e-16
      8734.00  8.87467e-16
      8736.00  8.77945e-16
      8738.00  8.77081e-16
      8740.00  8.82034e-16
      8742.00  8.87930e-16
      8744.00  8.99795e-16
      8746.00  9.10456e-16
      8748.00  9.08257e-16
      8750.00  8.88863e-16
      8752.00  8.82666e-16
      8754.00  8.82333e-16
      8756.00  8.83289e-16
      8758.00  8.82378e-16
      8760.00  8.80915e-16
      8762.00  8.80787e-16
      8764.00  8.82123e-16
      8766.00  8.82998e-16
      8768.00  8.83990e-16
      8770.00  8.85701e-16
      8772.00  8.78746e-16
      8774.00  8.57089e-16
      8776.00  8.46998e-16
      8778.00  8.49476e-16
      8780.00  8.59947e-16
      8782.00  8.71582e-16
      8784.00  8.99425e-16
      8786.00  9.06189e-16
      8788.00  8.91947e-16
      8790.00  8.71077e-16
      8792.00  8.62637e-16
      8794.00  8.57918e-16
      8796.00  8.57597e-16
      8798.00  8.65965e-16
      8800.00  8.72899e-16
      8802.00  8.71571e-16
      8804.00  8.64759e-16
      8806.00  8.57175e-16
      8808.00  8.40379e-16
      8810.00  8.31979e-16
      8812.00  8.37823e-16
      8814.00  8.54496e-16
      8816.00  8.66158e-16
      8818.00  8.84408e-16
      8820.00  8.92571e-16
      8822.00  8.87353e-16
      8824.00  8.74917e-16
      8826.00  8.72719e-16
      8828.00  8.75002e-16
      8830.00  8.78437e-16
      8832.00  8.88787e-16
      8834.00  8.96807e-16
      8836.00  8.88713e-16
      8838.00  8.58865e-16
      8840.00  8.45767e-16
      8842.00  8.36416e-16
      8844.00  8.32981e-16
      8846.00  8.38508e-16
      8848.00  8.58152e-16
      8850.00  8.58943e-16
      8852.00  8.45944e-16
      8854.00  8.34389e-16
      8856.00  8.26766e-16
      8858.00  8.20008e-16
      8860.00  8.20857e-16
      8862.00  8.35818e-16
      8864.00  8.39729e-16
      8866.00  8.29633e-16
      8868.00  8.12790e-16
      8870.00  8.06654e-16
      8872.00  8.04698e-16
      8874.00  8.05822e-16
      8876.00  8.15171e-16
      8878.00  8.23634e-16
      8880.00  8.18193e-16
      8882.00  7.93052e-16
      8884.00  7.86726e-16
      8886.00  7.93183e-16
      8888.00  7.98644e-16
      8890.00  7.93358e-16
      8892.00  7.77461e-16
      8894.00  7.77507e-16
      8896.00  7.90105e-16
      8898.00  8.01088e-16
      8900.00  8.08968e-16
      8902.00  8.16439e-16
      8904.00  8.12167e-16
      8906.00  7.94038e-16
      8908.00  7.79582e-16
      8910.00  7.67262e-16
      8912.00  7.56266e-16
      8914.00  7.50221e-16
      8916.00  7.49305e-16
      8918.00  7.48604e-16
      8920.00  7.51700e-16
      8922.00  7.53964e-16
      8924.00  7.48671e-16
      8926.00  7.29202e-16
      8928.00  7.27897e-16
      8930.00  7.41605e-16
      8932.00  7.54227e-16
      8934.00  7.56262e-16
      8936.00  7.52698e-16
      8938.00  7.45979e-16
      8940.00  7.26132e-16
      8942.00  7.16925e-16
      8944.00  7.28128e-16
      8946.00  7.54577e-16
      8948.00  7.54076e-16
      8950.00  7.40126e-16
      8952.00  7.17698e-16
      8954.00  6.75222e-16
      8956.00  6.26666e-16
      8958.00  6.21660e-16
      8960.00  6.66161e-16
      8962.00  6.81704e-16
      8964.00  6.81381e-16
      8966.00  6.75008e-16
      8968.00  6.71515e-16
      8970.00  6.69056e-16
      8972.00  6.60002e-16
      8974.00  6.41697e-16
      8976.00  6.25823e-16
      8978.00  6.19904e-16
      8980.00  6.22823e-16
      8982.00  6.17688e-16
      8984.00  6.06569e-16
      8986.00  5.98872e-16
      8988.00  5.99090e-16
      8990.00  6.04930e-16
      8992.00  5.94373e-16
      8994.00  5.67797e-16
      8996.00  5.46881e-16
      8998.00  5.27163e-16
      9000.00  5.10732e-16
      9002.00  5.11281e-16
      9004.00  5.34239e-16
      9006.00  5.46242e-16
      9008.00  5.57015e-16
      9010.00  5.63067e-16
      9012.00  5.58263e-16
      9014.00  5.38800e-16
      9016.00  5.27468e-16
      9018.00  5.16494e-16
      9020.00  5.07201e-16
      9022.00  5.00509e-16
      9024.00  4.96521e-16
      9026.00  4.91816e-16
      9028.00  4.87375e-16
      9030.00  4.83649e-16
      9032.00  4.79710e-16
      9034.00  4.75739e-16
      9036.00  4.79303e-16
      9038.00  4.96297e-16
      9040.00  5.01998e-16
      9042.00  4.92798e-16
      9044.00  4.78089e-16
      9046.00  4.79788e-16
      9048.00  5.02103e-16
      9050.00  5.05081e-16
      9052.00  4.91543e-16
      9054.00  4.74761e-16
      9056.00  4.69196e-16
      9058.00  4.67964e-16
      9060.00  4.71557e-16
      9062.00  4.88775e-16
      9064.00  4.98682e-16
      9066.00  4.86832e-16
      9068.00  4.51407e-16
      9070.00  4.49271e-16
      9072.00  4.74244e-16
      9074.00  4.92006e-16
      9076.00  4.96147e-16
      9078.00  4.93107e-16
      9080.00  4.91659e-16
      9082.00  4.84810e-16
      9084.00  4.83418e-16
      9086.00  4.89038e-16
      9088.00  4.97425e-16
      9090.00  4.98962e-16
      9092.00  4.94767e-16
      9094.00  4.93370e-16
      9096.00  4.90907e-16
      9098.00  4.90849e-16
      9100.00  4.98109e-16
      9102.00  5.21427e-16
      9104.00  5.21808e-16
      9106.00  5.02086e-16
      9108.00  4.84733e-16
      9110.00  4.81382e-16
      9112.00  4.86197e-16
      9114.00  4.92065e-16
      9116.00  5.08100e-16
      9118.00  5.16603e-16
      9120.00  5.12932e-16
      9122.00  5.00971e-16
      9124.00  4.96202e-16
      9126.00  4.96335e-16
      9128.00  4.91615e-16
      9130.00  4.77561e-16
      9132.00  4.62483e-16
      9134.00  4.67406e-16
      9136.00  4.94323e-16
      9138.00  5.10724e-16
      9140.00  5.25545e-16
      9142.00  5.37204e-16
      9144.00  5.42781e-16
      9146.00  5.42841e-16
      9148.00  5.40316e-16
      9150.00  5.29927e-16
      9152.00  5.21954e-16
      9154.00  5.21477e-16
      9156.00  5.25789e-16
      9158.00  5.32319e-16
      9160.00  5.49615e-16
      9162.00  5.57324e-16
      9164.00  5.48151e-16
      9166.00  5.27617e-16
      9168.00  5.28337e-16
      9170.00  5.55326e-16
      9172.00  5.59438e-16
      9174.00  5.34230e-16
      9176.00  4.99552e-16
      9178.00  4.97604e-16
      9180.00  5.31265e-16
      9182.00  5.38288e-16
      9184.00  5.26880e-16
      9186.00  5.12353e-16
      9188.00  5.09689e-16
      9190.00  5.14156e-16
      9192.00  5.16922e-16
      9194.00  5.26525e-16
      9196.00  5.29358e-16
      9198.00  5.16462e-16
      9200.00  4.86984e-16
      9202.00  4.79060e-16
      9204.00  4.85701e-16
      9206.00  4.90861e-16
      9208.00  4.91054e-16
      9210.00  4.89719e-16
      9212.00  4.97784e-16
      9214.00  5.22238e-16
      9216.00  5.31141e-16
      9218.00  5.23606e-16
      9220.00  5.08156e-16
      9222.00  4.99968e-16
      9224.00  4.96766e-16
      9226.00  4.86263e-16
      9228.00  4.65311e-16
      9230.00  4.46712e-16
      9232.00  4.44226e-16
      9234.00  4.59925e-16
      9236.00  4.61673e-16
      9238.00  4.54083e-16
      9240.00  4.50748e-16
      9242.00  4.58847e-16
      9244.00  4.76481e-16
      9246.00  4.87281e-16
      9248.00  5.03303e-16
      9250.00  5.07290e-16
      9252.00  4.91411e-16
      9254.00  4.61813e-16
      9256.00  4.58171e-16
      9258.00  4.79139e-16
      9260.00  4.85843e-16
      9262.00  4.78299e-16
      9264.00  4.65707e-16
      9266.00  4.63125e-16
      9268.00  4.67598e-16
      9270.00  4.68959e-16
      9272.00  4.66400e-16
      9274.00  4.67030e-16
      9276.00  4.78484e-16
      9278.00  5.05214e-16
      9280.00  5.16595e-16
      9282.00  5.24167e-16
      9284.00  5.23819e-16
      9286.00  5.10947e-16
      9288.00  4.82542e-16
      9290.00  4.75866e-16
      9292.00  4.85802e-16
      9294.00  4.91736e-16
      9296.00  4.92921e-16
      9298.00  4.91801e-16
      9300.00  4.80631e-16
      9302.00  4.55809e-16
      9304.00  4.36243e-16
      9306.00  4.16397e-16
      9308.00  4.00037e-16
      9310.00  3.99466e-16
      9312.00  4.28551e-16
      9314.00  4.28146e-16
      9316.00  3.99240e-16
      9318.00  3.72379e-16
      9320.00  3.77375e-16
      9322.00  4.12245e-16
      9324.00  4.28780e-16
      9326.00  4.45584e-16
      9328.00  4.55192e-16
      9330.00  4.51280e-16
      9332.00  4.31553e-16
      9334.00  4.37499e-16
      9336.00  4.68128e-16
      9338.00  4.87582e-16
      9340.00  4.88413e-16
      9342.00  4.79024e-16
      9344.00  4.87229e-16
      9346.00  5.14656e-16
      9348.00  5.26120e-16
      9350.00  5.25493e-16
      9352.00  5.15910e-16
      9354.00  4.98577e-16
      9356.00  4.60310e-16
      9358.00  4.40725e-16
      9360.00  4.27738e-16
      9362.00  4.24088e-16
      9364.00  4.34660e-16
      9366.00  4.72847e-16
      9368.00  4.77389e-16
      9370.00  4.53927e-16
      9372.00  4.36871e-16
      9374.00  4.41861e-16
      9376.00  4.62636e-16
      9378.00  4.70317e-16
      9380.00  4.71270e-16
      9382.00  4.75279e-16
      9384.00  4.86354e-16
      9386.00  5.00666e-16
      9388.00  4.98119e-16
      9390.00  4.74846e-16
      9392.00  4.64326e-16
      9394.00  4.64243e-16
      9396.00  4.69145e-16
      9398.00  4.72379e-16
      9400.00  4.77485e-16
      9402.00  4.82138e-16
      9404.00  4.88779e-16
      9406.00  4.93638e-16
      9408.00  4.92668e-16
      9410.00  4.82625e-16
      9412.00  4.84267e-16
      9414.00  4.91052e-16
      9416.00  5.02543e-16
      9418.00  5.24880e-16
      9420.00  5.64675e-16
      9422.00  5.48494e-16
      9424.00  4.62107e-16
      9426.00  4.13347e-16
      9428.00  4.15993e-16
      9430.00  4.49202e-16
      9432.00  4.71330e-16
      9434.00  5.17821e-16
      9436.00  5.30637e-16
      9438.00  5.01636e-16
      9440.00  4.60477e-16
      9442.00  4.60602e-16
      9444.00  5.00859e-16
      9446.00  5.13849e-16
      9448.00  5.13402e-16
      9450.00  5.10177e-16
      9452.00  5.13462e-16
      9454.00  5.25305e-16
      9456.00  5.18687e-16
      9458.00  4.93804e-16
      9460.00  4.71752e-16
      9462.00  4.62085e-16
      9464.00  4.61476e-16
      9466.00  4.45766e-16
      9468.00  4.01983e-16
      9470.00  3.88429e-16
      9472.00  4.20831e-16
      9474.00  4.80645e-16
      9476.00  4.94507e-16
      9478.00  4.82042e-16
      9480.00  4.67355e-16
      9482.00  4.35831e-16
      9484.00  4.04272e-16
      9486.00  4.09408e-16
      9488.00  4.65329e-16
      9490.00  4.78434e-16
      9492.00  4.69833e-16
      9494.00  4.51214e-16
      9496.00  4.29377e-16
      9498.00  3.85122e-16
      9500.00  3.82632e-16
      9502.00  4.17472e-16
      9504.00  4.48941e-16
      9506.00  4.62942e-16
      9508.00  4.69047e-16
      9510.00  4.72296e-16
      9512.00  4.66708e-16
      9514.00  4.63843e-16
      9516.00  4.67329e-16
      9518.00  4.72871e-16
      9520.00  4.62754e-16
      9522.00  4.31756e-16
      9524.00  4.15273e-16
      9526.00  4.09565e-16
      9528.00  4.09904e-16
      9530.00  4.11507e-16
      9532.00  4.20323e-16
      9534.00  4.24039e-16
      9536.00  4.28007e-16
      9538.00  4.28351e-16
      9540.00  4.21013e-16
      9542.00  4.02667e-16
      9544.00  3.95823e-16
      9546.00  3.92504e-16
      9548.00  3.94274e-16
      9550.00  4.01686e-16
      9552.00  4.14401e-16
      9554.00  4.31875e-16
      9556.00  4.69426e-16
      9558.00  4.85484e-16
      9560.00  4.74847e-16
      9562.00  4.46506e-16
      9564.00  4.21612e-16
      9566.00  3.70665e-16
      9568.00  3.57233e-16
      9570.00  3.85249e-16
      9572.00  4.27585e-16
      9574.00  4.41304e-16
      9576.00  4.47211e-16
      9578.00  4.38018e-16
      9580.00  4.07356e-16
      9582.00  3.73623e-16
      9584.00  3.50813e-16
      9586.00  3.28660e-16
      9588.00  3.19751e-16
      9590.00  3.23790e-16
      9592.00  3.31222e-16
      9594.00  3.40390e-16
      9596.00  3.54235e-16
      9598.00  3.60051e-16
      9600.00  3.60882e-16
      9602.00  3.60642e-16
      9604.00  3.58077e-16
      9606.00  3.53980e-16
      9608.00  3.55562e-16
      9610.00  3.61439e-16
      9612.00  3.67494e-16
      9614.00  3.75338e-16
      9616.00  3.83586e-16
      9618.00  3.89353e-16
      9620.00  3.94511e-16
      9622.00  3.97089e-16
      9624.00  3.97539e-16
      9626.00  3.96149e-16
      9628.00  3.92692e-16
      9630.00  3.84690e-16
      9632.00  3.83352e-16
      9634.00  3.89440e-16
      9636.00  3.91803e-16
      9638.00  3.85560e-16
      9640.00  3.72441e-16
      9642.00  3.68954e-16
      9644.00  3.69456e-16
      9646.00  3.73461e-16
      9648.00  3.83868e-16
      9650.00  3.97820e-16
      9652.00  4.00101e-16
      9654.00  3.96017e-16
      9656.00  3.87236e-16
      9658.00  3.72222e-16
      9660.00  3.53068e-16
      9662.00  3.33501e-16
      9664.00  2.98602e-16
      9666.00  2.90670e-16
      9668.00  3.02396e-16
      9670.00  3.21937e-16
      9672.00  3.42326e-16
      9674.00  3.75810e-16
      9676.00  3.84836e-16
      9678.00  3.68376e-16
      9680.00  3.60212e-16
      9682.00  3.73280e-16
      9684.00  4.01513e-16
      9686.00  4.09490e-16
      9688.00  4.17024e-16
      9690.00  4.03877e-16
      9692.00  3.56464e-16
      9694.00  2.91340e-16
      9696.00  2.77421e-16
      9698.00  3.05397e-16
      9700.00  3.23237e-16
      9702.00  3.43203e-16
      9704.00  3.62430e-16
      9706.00  3.71681e-16
      9708.00  3.70439e-16
      9710.00  3.73303e-16
      9712.00  3.77768e-16
      9714.00  3.79551e-16
      9716.00  3.75154e-16
      9718.00  3.63861e-16
      9720.00  3.57357e-16
      9722.00  3.53063e-16
      9724.00  3.47737e-16
      9726.00  3.39470e-16
      9728.00  3.28651e-16
      9730.00  3.25227e-16
      9732.00  3.30559e-16
      9734.00  3.31007e-16
      9736.00  3.23550e-16
      9738.00  3.13141e-16
      9740.00  3.15165e-16
      9742.00  3.31605e-16
      9744.00  3.38533e-16
      9746.00  3.39171e-16
      9748.00  3.36701e-16
      9750.00  3.34238e-16
      9752.00  3.25192e-16
      9754.00  3.26233e-16
      9756.00  3.41158e-16
      9758.00  3.50049e-16
      9760.00  3.37103e-16
      9762.00  3.00203e-16
      9764.00  2.88568e-16
      9766.00  2.91048e-16
      9768.00  2.94539e-16
      9770.00  2.95213e-16
      9772.00  2.95705e-16
      9774.00  3.01611e-16
      9776.00  3.23079e-16
      9778.00  3.26138e-16
      9780.00  3.04591e-16
      9782.00  2.69815e-16
      9784.00  2.54233e-16
      9786.00  2.45481e-16
      9788.00  2.42637e-16
      9790.00  2.46201e-16
      9792.00  2.55624e-16
      9794.00  2.70001e-16
      9796.00  3.00357e-16
      9798.00  3.12630e-16
      9800.00  3.08912e-16
      9802.00  3.08360e-16
      9804.00  3.26232e-16
      9806.00  3.66001e-16
      9808.00  3.71940e-16
      9810.00  3.50680e-16
      9812.00  3.32601e-16
      9814.00  3.23305e-16
      9816.00  3.16370e-16
      9818.00  3.24266e-16
      9820.00  3.66226e-16
      9822.00  3.75726e-16
      9824.00  3.42414e-16
      9826.00  2.87458e-16
      9828.00  2.67133e-16
      9830.00  2.68048e-16
      9832.00  2.63912e-16
      9834.00  2.61222e-16
      9836.00  2.58586e-16
      9838.00  2.52171e-16
      9840.00  2.40470e-16
      9842.00  2.33958e-16
      9844.00  2.26760e-16
      9846.00  2.24753e-16
      9848.00  2.32213e-16
      9850.00  2.49071e-16
      9852.00  2.64208e-16
      9854.00  2.91614e-16
      9856.00  3.04839e-16
      9858.00  2.92618e-16
      9860.00  2.60038e-16
      9862.00  2.53962e-16
      9864.00  2.66279e-16
      9866.00  2.72484e-16
      9868.00  2.70275e-16
      9870.00  2.65975e-16
      9872.00  2.73812e-16
      9874.00  3.05076e-16
      9876.00  3.08561e-16
      9878.00  2.84282e-16
      9880.00  2.53380e-16
      9882.00  2.42511e-16
      9884.00  2.32545e-16
      9886.00  2.46792e-16
      9888.00  3.02468e-16
      9890.00  3.43751e-16
      9892.00  3.31455e-16
      9894.00  2.67700e-16
      9896.00  2.50825e-16
      9898.00  2.58745e-16
      9900.00  2.63684e-16
      9902.00  2.61200e-16
      9904.00  2.56685e-16
      9906.00  2.39917e-16
      9908.00  1.97778e-16
      9910.00  1.77765e-16
      9912.00  1.84660e-16
      9914.00  2.05249e-16
      9916.00  2.09341e-16
      9918.00  2.09743e-16
      9920.00  2.03901e-16
      9922.00  1.81971e-16
      9924.00  1.63522e-16
      9926.00  1.75358e-16
      9928.00  2.20380e-16
      9930.00  2.48281e-16
      9932.00  2.82086e-16
      9934.00  3.05265e-16
      9936.00  3.05996e-16
      9938.00  2.83369e-16
      9940.00  2.75964e-16
      9942.00  2.68512e-16
      9944.00  2.67100e-16
      9946.00  2.75618e-16
      9948.00  2.92603e-16
      9950.00  2.96145e-16
