SIMPLE  =                    T / Written by IDL:  Fri Jun 20 11:12:14 2014      
BITPIX  =                  -32 /bits per data value                             
NAXIS   =                    2 /number of axes                                  
NAXIS1  =                 3888 /Number of positions along axis 1                
NAXIS2  =                    3 /Number of positions along axis 2                
ORIGIN  = 'Institute for Astronomy' /                                           
TELESCOP= 'NASA IRTF'          /                                                
INSTRUME= 'SPeX, IRTF Spectrograph' /                                           
OBSERVER= 'Marion,Sand,Bochanski' /                                             
OBJECT  = 'HIP52478'           /                                                
IRAFNAME= 'SN14J_merge'        /                                                
TIME_OBS= '11:23:15.4554'      / Average UT TIME OF ACQISTION ('hh:mm:ss.ss')   
DATE_OBS= '2014-01-25'         / UT DATE OF ACQUISITION ('yyyy/mm/dd')          
ITIME   =            4.0000000 / INTEGRATION TIME IN SECONDS                    
CO_ADDS =                    2 / NUMBER OF INTEGRATIONS                         
NDR     =                    7 / Number of Non-Destructive Reads                
SLOWCNT =                   20 / Number of Slow Counts                          
TABLE_MS=            512.45200 / msec to clock out array                        
ROTATOR =            343.45000 / Rotator_Mechanical_Angle; pos=686904           
POSANGLE=            213.10000 / Average Sky_Position_Angle                     
SLIT    = '0.3x15  '           / menu=2,pos=89000                               
GRAT    = 'ShortXD '           / menu=0,pos=719950                              
PLATE_SC=           0.15000000 / PlateScale arcsec/pixel                        
RA      = '+10:43:43.70 '      / Right Ascension                                
DEC     = '+57:11:56.1 '       / Declination                                    
HA      = '+01:24:11.0025'     / Average Hour Angle                             
AIRMASS =              1.54700 / Average Air Mass                               
EPOCH   =            2000.0000 / Epoch                                          
MODENAME= 'ShortXD '           / Spectroscopy mode                              
FLAT    = 'flat50-54.fits'     / Flat field image                               
NAPS    =                    1 / Number of apertures                            
NORDERS =                    1 / Number of orders                               
ORDERS  = '0       '           / Order numbers                                  
START   =                    0 / Array column of first FITS array column        
STOP    =                 3887 / Array column of last FITS array column         
SLTH_PIX=            100.00000 / Slit height in pixels                          
SLTH_ARC=            15.000000 / Slit height in arcseconds                      
SLTW_PIX=            2.0000000 / Slit width in pixels                           
SLTW_ARC=           0.30000000 / Slit width in arcseconds                       
APPOSO03= '3.65436 '           / Aperture positions (arcsec) for order 03       
APPOSO04= '3.63544 '           / Aperture positions (arcsec) for order 04       
APPOSO05= '3.59981 '           / Aperture positions (arcsec) for order 05       
APPOSO06= '3.56324 '           / Aperture positions (arcsec) for order 06       
APPOSO07= '3.51862 '           / Aperture positions (arcsec) for order 07       
APPOSO08= '3.49755 '           / Aperture positions (arcsec) for order 08       
PSFRAD  =            2.2000000 / Optimal extraction PSF radius in arcseconds    
APRADIUS=            1.0000000 / Aperture radius in arcseconds                  
BGSTART =            2.2000000 / Background start radius in arcseconds          
BGWIDTH =            2.0000000 / Background width in arcseconds                 
BGORDER =            0.0000000 / Background polynomial fit degree               
WAVECAL = 'wavecal55-57.fits'  / Wavecal file used for wavelength calibration   
XUNITS  = 'um      '           / Units of the X axis                            
YUNITS  = 'ergss-1cm-2A-1'     /Units of the Y axis                             
XTITLE  = '!7k!5 (!7l!5m)'     / IDL X title                                    
YTITLE  = '!5f!D!7k!N!5 (ergs s!E-1!N cm!E-2!N !5!sA!r!u!9 %!5!n!E-1!N)' / IDL Y
VERSION = 'v3.4    '           / Spextool version                               
RES     =            2000.0000 / Average spectral resolving power               
DISPO03 =        0.00053751100 / Dispersion (um pixel-1) for order 03           
DISPO04 =        0.00040319100 / Dispersion (um pixel-1) for order 04           
DISPO05 =        0.00032272900 / Dispersion (um pixel-1) for order 05           
DISPO06 =        0.00026919600 / Dispersion (um pixel-1) for order 06           
DISPO07 =        0.00023105200 / Dispersion (um pixel-1) for order 07           
DISPO08 =        0.00020252500 / Dispersion (um pixel-1) for order 08           
DAIRMASS=            -0.277000 / Average airmass difference between std and obj 
HISTORY The output FITS files contain a 3-D array of data consisting ofsets of  
HISTORY  triplet arrays of data for each aperture and each order,where each tr  
HISTORY iplet is composed of an array for the wavelength,an array for the flux  
HISTORY , and an array for the error. The tripletsfor each aperture are stacke  
HISTORY d behind one another, followed bythe triplets for the next order, etc.  
HISTORY  If no orders have beenskipped or deslected in the extraction process,  
HISTORY  the contents ofaperture Y in order X can be found as follows:lambda =  
HISTORY array[*,0,( X - (smallest order number))*naps + (Y-1)], flux   =array[  
HISTORY *,1,( X - (smallest order number))*naps + (Y-1)], error  =array[*,2,(   
HISTORY X - (smallest order number))*naps + (Y-1)]  Forexample, for an SXD fil  
HISTORY e with two apertures, the wavelengtharray for aperture 1 in order 3 is  
HISTORY  located in array [*,0,0], theflux is in array [*,1,0] and the error i  
HISTORY s in array [*,2,0]. Foraperture 2, the wavelength is in array [*,0,1],  
HISTORY  the flux is inarray [*,1,1] and the error is in array [*,2,1]. For or  
HISTORY der 4,the flux for aperture 1 is in array [*,1,2], while the flux fora  
HISTORY perture 2 is in array [*,1,3]. For order 5, the fluxes for thetwo aper  
HISTORY tures are in arrays [*,1,4] and [*,1,5], etc.  Thespectra have been co  
HISTORY rrected for non-linearity.                                              
HISTORY                                                                         
HISTORY Xcombspec History                                                       
HISTORY                                                                         
HISTORY The spectra were combined using a Robust Weighted Mean.  The robust     
HISTORY threshold was 8.00000.  The files spectra0024.fits, spectra0025.fits,   
HISTORY spectra0026.fits, spectra0027.fits, spectra0028.fits,                   
HISTORY spectra0029.fits, spectra0030.fits, spectra0031.fits,                   
HISTORY spectra0032.fits, spectra0033.fits, spectra0034.fits,                   
HISTORY spectra0035.fits were combined.    Aperture 01 Info: The scale          
HISTORY factors were determined using order 05.  The scale factors are          
HISTORY 1.03829, 1.11579, 0.983770, 0.950954, 0.931083, 1.05311, 1.01678,       
HISTORY 0.919712, 0.903883, 1.06481, 1.07070, 0.921588.  The median RMS         
HISTORY deviation in each order is 6.48820, 6.01926, 3.90797, 8.53554,          
HISTORY 6.59353, 3.18024.    The spectral shapes have been corrected.           
HISTORY                                                                         
HISTORY Xtellcor History                                                        
HISTORY                                                                         
HISTORY This spectrum was telluric corrected using the telluric correction      
HISTORY spectra SN14J_tellcor_tellcor.fits.  The B and V magnitudes of          
HISTORY HIP52478 are 5.75100, and 5.78800 respectively.  The velocity shift     
HISTORY of Vega is 1.61566 km s-1.  The Vega model was modified using the       
HISTORY deconvolution method.  The maximum deviation and rms deviation          
HISTORY between the modified Vega model and the data over the kernel            
HISTORY wavelength range are 4.89723 % and 2.35993 %, respectively.  The        
HISTORY telluric correction spectra for aperture 01 were shifted by 0.272366,   
HISTORY 0.00249761, -0.197768, 0.204870, -0.642127, 0.00000 pixels.             
HISTORY                                                                         
HISTORY Xmergeorders History                                                    
HISTORY                                                                         
HISTORY This merged spectrum was derived from aperture 01 of file               
HISTORY SN14J_tellcor.fits.  The scaled factors for orders 3, 4, 5, 6, 7, 8     
HISTORY are 1.00000, 1.01064, 1.06276, 1.07507, 1.03999, 1.05448 respectively.  
END                                                                             
  7899.8800 6.44672e-14 1.87693e-14
  7902.3100 6.32053e-14 1.80513e-14
  7904.7400 8.39383e-14 1.91184e-14
  7907.1600 7.52387e-14 1.91992e-14
  7909.5900 7.71732e-14 1.95783e-14
  7912.0200 8.06040e-14 2.19327e-14
  7914.4400 6.94197e-14 1.91371e-14
  7916.8700 8.24555e-14 1.95097e-14
  7919.3000 7.00878e-14 1.69670e-14
  7921.7300 5.50296e-14 1.54488e-14
  7924.1500 5.94254e-14 1.47947e-14
  7926.5800 7.18147e-14 1.64936e-14
  7929.0100 7.26626e-14 1.67107e-14
  7931.4300 5.71882e-14 1.41614e-14
  7933.8600 5.07625e-14 1.43331e-14
  7936.2900 6.62899e-14 1.65252e-14
  7938.7100 5.73891e-14 1.43467e-14
  7941.1400 5.72958e-14 1.40195e-14
  7943.5700 5.81764e-14 1.39657e-14
  7945.9900 5.07863e-14 1.32380e-14
  7948.4200 5.88950e-14 1.48197e-14
  7950.8500 6.89383e-14 1.63685e-14
  7953.2700 6.12774e-14 1.39515e-14
  7955.7000 7.09029e-14 1.47002e-14
  7958.1300 4.96979e-14 1.29422e-14
  7960.5600 6.36606e-14 1.46573e-14
  7962.9800 8.12976e-14 1.65520e-14
  7965.4100 7.43207e-14 1.52714e-14
  7967.8400 7.30804e-14 1.44492e-14
  7970.2600 5.09466e-14 1.27745e-14
  7972.6900 5.51105e-14 1.32658e-14
  7975.1200 5.51588e-14 1.24450e-14
  7977.5400 4.03948e-14 1.02057e-14
  7979.9700 6.45406e-14 1.25905e-14
  7982.4000 5.67478e-14 1.19325e-14
  7984.8200 5.26419e-14 1.14081e-14
  7987.2500 5.35846e-14 1.10823e-14
  7989.6800 5.73660e-14 1.14736e-14
  7992.1000 5.11425e-14 1.10734e-14
  7994.5300 5.72282e-14 1.15717e-14
  7996.9600 5.67322e-14 1.09019e-14
  7999.3900 5.45611e-14 1.05922e-14
  8001.8100 6.14724e-14 1.13836e-14
  8004.2400 5.27860e-14 1.11960e-14
  8006.6700 5.86170e-14 1.13278e-14
  8009.0900 5.66892e-14 1.13968e-14
  8011.5200 4.70220e-14 1.01851e-14
  8013.9500 5.18348e-14 1.02784e-14
  8016.3700 4.73757e-14 9.68189e-15
  8018.8000 4.79463e-14 9.73068e-15
  8021.2300 5.15183e-14 1.01177e-14
  8023.6500 5.29560e-14 1.00606e-14
  8026.0800 3.94306e-14 8.59706e-15
  8028.5100 5.12639e-14 9.79045e-15
  8030.9300 5.21333e-14 9.97490e-15
  8033.3600 4.91420e-14 9.37227e-15
  8035.7900 5.10335e-14 9.57273e-15
  8038.2200 5.17742e-14 9.07218e-15
  8040.6400 4.41887e-14 8.80532e-15
  8043.0700 3.98539e-14 8.39777e-15
  8045.5000 4.49998e-14 8.81873e-15
  8047.9200 4.00457e-14 8.45099e-15
  8050.3500 3.84465e-14 7.56914e-15
  8052.7800 4.66682e-14 1.20849e-14
  8055.2000 5.07212e-14 1.34431e-14
  8057.6300 4.67993e-14 8.03594e-15
  8060.0600 4.86719e-14 9.13765e-15
  8062.4800 4.74028e-14 8.65889e-15
  8064.9100 4.80193e-14 8.55004e-15
  8067.3400 4.43085e-14 7.82658e-15
  8069.7600 4.49955e-14 8.05676e-15
  8072.1900 4.49725e-14 7.84458e-15
  8074.6200 3.94920e-14 7.27939e-15
  8077.0500 3.66845e-14 6.87044e-15
  8079.4700 4.03443e-14 7.38392e-15
  8081.9000 4.22384e-14 7.39577e-15
  8084.3300 4.38481e-14 7.46497e-15
  8086.7500 4.07314e-14 7.17259e-15
  8089.1800 3.94369e-14 7.07072e-15
  8091.6100 4.09031e-14 6.99301e-15
  8094.0300 4.07058e-14 6.97009e-15
  8096.4600 3.11623e-14 6.06227e-15
  8098.8900 3.41952e-14 6.42043e-15
  8101.3100 3.47187e-14 6.42587e-15
  8103.7400 3.77519e-14 6.60797e-15
  8106.1700 3.60633e-14 6.42435e-15
  8108.6000 3.26864e-14 6.35665e-15
  8111.0200 3.07048e-14 5.95424e-15
  8113.4500 3.09169e-14 5.92722e-15
  8115.8800 2.68572e-14 5.36054e-15
  8118.3000 2.76445e-14 5.43645e-15
  8120.7300 2.53023e-14 5.03999e-15
  8123.1600 2.85812e-14 5.47071e-15
  8125.5800 2.62034e-14 5.29444e-15
  8128.0100 2.31963e-14 5.13756e-15
  8130.4400 2.40599e-14 5.07453e-15
  8132.8600 2.03446e-14 4.71653e-15
  8135.2900 2.20021e-14 4.74550e-15
  8137.7200 2.27156e-14 4.64775e-15
  8140.1400 1.88286e-14 4.23861e-15
  8142.5700 1.50650e-14 3.92111e-15
  8145.0000 1.68771e-14 4.09035e-15
  8147.4300 1.41792e-14 3.79753e-15
  8149.8500 1.54064e-14 3.75252e-15
  8152.2800 1.77694e-14 3.95530e-15
  8154.7100 1.49560e-14 3.94098e-15
  8157.1300 1.15565e-14 3.47640e-15
  8159.5600 1.25850e-14 3.56073e-15
  8161.9900 9.64790e-15 3.41537e-15
  8164.4100 1.29487e-14 3.65408e-15
  8166.8400 1.11255e-14 3.35972e-15
  8169.2700 1.14281e-14 3.34752e-15
  8171.6900 1.02356e-14 3.15189e-15
  8174.1200 7.20030e-15 2.94822e-15
  8176.5500 1.09327e-14 3.27333e-15
  8178.9700 1.12456e-14 3.19582e-15
  8181.4000 1.21019e-14 3.38887e-15
  8183.8300 9.12818e-15 3.11468e-15
  8186.2600 9.40381e-15 3.06490e-15
  8188.6800 6.01331e-15 2.77887e-15
  8191.1100 9.26516e-15 2.87953e-15
  8193.5400 8.83507e-15 2.76710e-15
  8195.9600 6.41974e-15 2.51401e-15
  8198.3900 5.63470e-15 2.50769e-15
  8200.8200 9.04996e-15 2.59804e-15
  8203.2400 8.43660e-15 2.85791e-15
  8205.6700 3.28156e-14 5.93397e-15
  8208.1000 8.62877e-15 2.50881e-15
  8210.5200 6.16193e-15 2.26671e-15
  8212.9500 5.47885e-15 2.10648e-15
  8215.3800 5.28658e-15 2.03503e-15
  8217.8000 6.73864e-15 2.25537e-15
  8220.2300 7.56458e-15 2.34617e-15
  8222.6600 8.70705e-15 2.40134e-15
  8225.0900 8.60337e-15 2.49283e-15
  8227.5100 5.85933e-15 2.18619e-15
  8229.9400 6.59186e-15 2.29984e-15
  8232.3700 5.62197e-15 2.16744e-15
  8234.7900 5.18115e-15 1.97520e-15
  8237.2200 9.78079e-15 2.31690e-15
  8239.6500 1.07983e-14 2.42189e-15
  8242.0700 8.83595e-15 2.23013e-15
  8244.5000 8.17869e-15 2.15914e-15
  8246.9300 7.78220e-15 2.14226e-15
  8249.3500 8.58478e-15 2.19288e-15
  8251.7800 9.76677e-15 2.34265e-15
  8254.2100 9.62640e-15 2.25580e-15
  8256.6300 7.25673e-15 1.95356e-15
  8259.0600 7.94131e-15 2.15035e-15
  8261.4900 7.52703e-15 2.06957e-15
  8263.9200 8.69655e-15 2.13294e-15
  8266.3400 9.98594e-15 2.25896e-15
  8268.7700 9.86522e-15 2.17387e-15
  8271.2000 1.00375e-14 2.14332e-15
  8273.6200 8.37179e-15 2.10173e-15
  8276.0500 6.92867e-15 1.97692e-15
  8278.4800 9.65429e-15 2.14392e-15
  8280.9000 9.23753e-15 2.12590e-15
  8283.3300 1.05997e-14 2.23403e-15
  8285.7600 1.03550e-14 2.22813e-15
  8288.1800 1.15776e-14 2.23890e-15
  8290.6100 1.04898e-14 2.13214e-15
  8293.0400 6.88993e-15 1.86965e-15
  8295.4600 8.47433e-15 1.97850e-15
  8297.8900 1.15980e-14 2.12684e-15
  8300.3200 1.06307e-14 2.14127e-15
  8302.7500 1.12691e-14 2.21285e-15
  8305.1700 9.65125e-15 2.01576e-15
  8307.6000 1.03872e-14 2.08569e-15
  8310.0300 1.16351e-14 2.12712e-15
  8312.4500 1.01533e-14 2.12956e-15
  8314.8800 1.13823e-14 2.16218e-15
  8317.3100 1.10499e-14 2.07999e-15
  8319.7300 1.00600e-14 2.02850e-15
  8322.1600 1.19823e-14 2.14727e-15
  8324.5900 1.15142e-14 2.10865e-15
  8327.0100 9.82018e-15 2.00156e-15
  8329.4400 1.18346e-14 2.02267e-15
  8331.8700 1.28817e-14 2.15886e-15
  8334.2900 1.40089e-14 2.20656e-15
  8336.7200 1.40679e-14 2.16840e-15
  8339.1500 1.37686e-14 2.22996e-15
  8341.5800 1.37241e-14 2.18267e-15
  8344.0000 1.58321e-14 2.25274e-15
  8346.4300 1.41475e-14 2.18556e-15
  8348.8600 1.35739e-14 2.08574e-15
  8351.2800 1.29118e-14 2.12155e-15
  8353.7100 1.22524e-14 2.14258e-15
  8356.1400 1.50120e-14 2.18925e-15
  8358.5600 1.52448e-14 2.17062e-15
  8360.9900 1.25918e-14 2.09482e-15
  8363.4200 1.49025e-14 2.14911e-15
  8365.8400 1.64570e-14 2.24947e-15
  8368.2700 1.66161e-14 2.27006e-15
  8370.7000 1.74289e-14 2.26562e-15
  8373.1200 1.55262e-14 2.25310e-15
  8375.5500 1.65779e-14 2.24529e-15
  8377.9800 1.79924e-14 2.26579e-15
  8380.4100 1.75752e-14 2.28580e-15
  8382.8300 1.72853e-14 2.24225e-15
  8385.2600 1.82682e-14 2.29241e-15
  8387.6900 1.89481e-14 2.37995e-15
  8390.1100 1.88213e-14 2.32420e-15
  8392.5400 1.97275e-14 2.40467e-15
  8394.9700 2.14820e-14 2.45653e-15
  8397.3900 2.02573e-14 2.42253e-15
  8399.8200 2.26442e-14 2.51400e-15
  8402.2500 2.35045e-14 2.58533e-15
  8404.6700 2.42883e-14 2.60333e-15
  8407.1000 2.51299e-14 2.63152e-15
  8409.5300 2.68806e-14 2.71231e-15
  8411.9500 2.62226e-14 2.65169e-15
  8414.3800 2.81701e-14 2.71687e-15
  8416.8100 2.79147e-14 2.75551e-15
  8419.2400 3.00725e-14 2.88912e-15
  8421.6600 3.16675e-14 2.90606e-15
  8424.0900 3.32741e-14 2.99021e-15
  8426.5200 3.34222e-14 3.01406e-15
  8428.9400 3.47835e-14 3.10878e-15
  8431.3700 3.72038e-14 3.14584e-15
  8433.8000 3.72290e-14 3.12666e-15
  8436.2200 3.77188e-14 3.19723e-15
  8438.6500 3.89496e-14 3.22890e-15
  8441.0800 4.03046e-14 3.29114e-15
  8443.5000 4.37883e-14 3.38657e-15
  8445.9300 4.29050e-14 3.34155e-15
  8448.3600 4.47441e-14 3.46179e-15
  8450.7800 4.57057e-14 3.54843e-15
  8453.2100 4.76447e-14 3.51540e-15
  8455.6400 4.74866e-14 3.45296e-15
  8458.0700 4.83314e-14 3.50889e-15
  8460.4900 4.91064e-14 3.56874e-15
  8462.9200 4.99519e-14 3.56954e-15
  8465.3500 5.09269e-14 3.58228e-15
  8467.7700 5.11612e-14 3.62735e-15
  8470.2000 5.08513e-14 3.57850e-15
  8472.6300 5.29591e-14 3.60951e-15
  8475.0500 5.34534e-14 3.62035e-15
  8477.4800 5.24297e-14 3.55385e-15
  8479.9100 5.38708e-14 3.60235e-15
  8482.3300 5.53524e-14 3.69517e-15
  8484.7600 5.43689e-14 3.65730e-15
  8487.1900 5.69775e-14 3.74105e-15
  8489.6100 5.64148e-14 3.74816e-15
  8492.0400 5.74098e-14 3.75797e-15
  8494.4700 5.75375e-14 3.72792e-15
  8496.9000 5.83364e-14 3.76642e-15
  8499.3200 5.83151e-14 3.74522e-15
  8501.7500 5.96689e-14 3.81469e-15
  8504.1800 5.75060e-14 3.69284e-15
  8506.6000 5.84269e-14 3.67461e-15
  8509.0300 6.04614e-14 3.74098e-15
  8511.4600 5.98788e-14 3.72459e-15
  8513.8800 5.89564e-14 3.68287e-15
  8516.3100 6.06884e-14 3.71806e-15
  8518.7400 6.11118e-14 3.73435e-15
  8521.1600 6.27610e-14 3.83219e-15
  8523.5900 6.20699e-14 3.77735e-15
  8526.0200 6.39204e-14 3.87219e-15
  8528.4400 6.43128e-14 3.86751e-15
  8530.8700 6.65046e-14 3.90930e-15
  8533.3000 6.52361e-14 3.88363e-15
  8535.7300 6.52922e-14 3.89001e-15
  8538.1500 6.48588e-14 3.87927e-15
  8540.5800 6.70282e-14 3.92584e-15
  8543.0100 6.67554e-14 3.91201e-15
  8545.4300 6.81962e-14 3.94887e-15
  8547.8600 6.84129e-14 3.95770e-15
  8550.2900 6.85372e-14 3.95747e-15
  8552.7100 6.81306e-14 3.94796e-15
  8555.1400 6.89924e-14 3.95463e-15
  8557.5700 6.91625e-14 3.95679e-15
  8559.9900 6.88427e-14 3.94490e-15
  8562.4200 7.08551e-14 3.99829e-15
  8564.8500 7.01373e-14 3.97506e-15
  8567.2700 6.98984e-14 3.96227e-15
  8569.7000 7.12111e-14 3.98537e-15
  8572.1300 7.12388e-14 3.97681e-15
  8574.5600 7.11368e-14 3.98291e-15
  8576.9800 7.07819e-14 3.96090e-15
  8579.4100 7.15419e-14 3.96824e-15
  8581.8400 7.24249e-14 3.99037e-15
  8584.2600 7.15717e-14 3.95278e-15
  8586.6900 7.11515e-14 3.94510e-15
  8589.1200 7.33094e-14 3.99442e-15
  8591.5400 7.29770e-14 3.97470e-15
  8593.9700 7.30191e-14 3.97121e-15
  8596.4000 7.37107e-14 3.97450e-15
  8598.8200 7.20927e-14 3.66645e-15
  8601.2500 8.76135e-14 6.45785e-15
  8603.6800 8.93794e-14 5.46566e-15
  8606.1000 7.37517e-14 3.81260e-15
  8608.5300 7.21812e-14 3.88476e-15
  8610.9600 7.21700e-14 3.88416e-15
  8613.3900 7.18261e-14 3.85813e-15
  8615.8100 7.07950e-14 3.82064e-15
  8618.2400 7.20089e-14 3.84090e-15
  8620.6700 7.23176e-14 3.83999e-15
  8623.0900 7.18047e-14 3.83410e-15
  8625.5200 7.10996e-14 3.79866e-15
  8627.9500 7.13528e-14 3.78359e-15
  8630.3700 7.13334e-14 3.76265e-15
  8632.8000 7.22387e-14 3.79822e-15
  8633.3900 7.26561e-14 3.88553e-15
  8636.1600 7.29564e-14 4.18157e-15
  8638.9300 7.21251e-14 4.36855e-15
  8641.7000 7.27303e-14 4.04493e-15
  8644.4700 7.27932e-14 3.79203e-15
  8647.2400 7.20856e-14 3.65811e-15
  8650.0100 7.39973e-14 3.72454e-15
  8652.7800 7.37746e-14 3.86913e-15
  8655.5500 7.48086e-14 4.14247e-15
  8658.3200 7.46956e-14 4.37300e-15
  8661.0900 7.53300e-14 4.20582e-15
  8663.8600 7.57280e-14 3.91594e-15
  8666.6300 7.72905e-14 3.74190e-15
  8669.4000 7.75407e-14 3.76263e-15
  8672.1700 7.60847e-14 3.87525e-15
  8674.9400 7.74228e-14 4.13527e-15
  8677.7100 7.74843e-14 4.42450e-15
  8680.4800 7.80288e-14 4.12288e-15
  8683.2500 7.95293e-14 3.90926e-15
  8686.0200 7.93360e-14 3.74887e-15
  8688.7900 7.98379e-14 3.74855e-15
  8691.5600 7.87194e-14 3.84957e-15
  8694.3300 7.91517e-14 4.09056e-15
  8697.1000 7.97789e-14 4.40664e-15
  8699.8700 8.10400e-14 4.17438e-15
  8702.6400 7.95017e-14 3.88099e-15
  8705.4100 8.04785e-14 3.74994e-15
  8708.1800 8.12872e-14 3.74879e-15
  8710.9500 8.42552e-14 3.96734e-15
  8713.7200 8.52183e-14 4.21270e-15
  8716.4900 8.67514e-14 4.57986e-15
  8719.2600 8.74995e-14 4.36330e-15
  8722.0300 8.80074e-14 4.10692e-15
  8724.8000 8.95033e-14 3.97539e-15
  8727.5700 8.89741e-14 3.94133e-15
  8730.3400 8.84835e-14 4.03495e-15
  8733.1100 9.06824e-14 4.30545e-15
  8735.8700 9.14568e-14 4.66875e-15
  8738.6400 9.17316e-14 4.49101e-15
  8741.4100 9.14618e-14 4.19152e-15
  8744.1800 9.11810e-14 3.99609e-15
  8746.9500 9.07969e-14 3.93706e-15
  8749.7200 9.12109e-14 4.03567e-15
  8752.4900 9.06357e-14 4.22382e-15
  8755.2600 8.99455e-14 4.48458e-15
  8758.0300 9.01334e-14 4.34152e-15
  8760.8000 9.14336e-14 4.09570e-15
  8763.5700 9.19340e-14 3.93566e-15
  8766.3400 9.34026e-14 3.91596e-15
  8769.1100 9.34798e-14 3.99702e-15
  8771.8800 9.31537e-14 4.17921e-15
  8774.6500 9.26418e-14 4.42997e-15
  8777.4200 9.32915e-14 4.34304e-15
  8780.1900 9.30144e-14 4.08183e-15
  8782.9600 9.23570e-14 3.88346e-15
  8785.7300 9.07938e-14 3.79132e-15
  8788.5000 9.22369e-14 3.89144e-15
  8791.2700 9.22588e-14 4.06189e-15
  8794.0400 9.33740e-14 4.32259e-15
  8796.8100 9.40090e-14 4.27652e-15
  8799.5800 9.24411e-14 3.99436e-15
  8802.3500 9.14243e-14 3.82501e-15
  8805.1200 9.15408e-14 3.76779e-15
  8807.8900 9.14086e-14 3.81582e-15
  8810.6600 9.19592e-14 4.00895e-15
  8813.4300 9.03157e-14 4.18306e-15
  8816.2000 8.93653e-14 4.14251e-15
  8818.9700 9.01530e-14 3.94089e-15
  8821.7400 8.96485e-14 3.74485e-15
  8824.5100 8.89328e-14 3.69845e-15
  8827.2800 8.75591e-14 3.67635e-15
  8830.0500 8.85720e-14 3.82102e-15
  8832.8200 8.71228e-14 4.00151e-15
  8835.5900 8.83557e-14 4.06035e-15
  8838.3600 8.88080e-14 3.85693e-15
  8841.1300 8.98382e-14 3.72367e-15
  8843.9000 8.87852e-14 3.63799e-15
  8846.6700 8.83007e-14 3.67441e-15
  8849.4400 8.61397e-14 3.71115e-15
  8852.2100 8.50631e-14 3.86525e-15
  8854.9800 8.46664e-14 3.90079e-15
  8857.7400 8.42659e-14 3.68975e-15
  8860.5100 8.46114e-14 3.53391e-15
  8863.2800 8.36220e-14 3.45312e-15
  8866.0500 8.35544e-14 3.47298e-15
  8868.8200 8.34748e-14 3.58283e-15
  8871.5900 8.29724e-14 3.73185e-15
  8874.3600 8.21880e-14 3.82071e-15
  8877.1300 8.25875e-14 3.62024e-15
  8879.9000 8.27754e-14 3.46026e-15
  8882.6700 8.40619e-14 3.42916e-15
  8885.4400 8.36811e-14 3.45196e-15
  8888.2100 8.26272e-14 3.49870e-15
  8890.9800 8.09812e-14 3.61421e-15
  8893.7500 7.94818e-14 3.68056e-15
  8896.5200 7.87975e-14 3.44309e-15
  8899.2900 7.94590e-14 3.32014e-15
  8902.0600 7.92528e-14 3.24498e-15
  8904.8300 7.95001e-14 3.25622e-15
  8907.6000 7.86685e-14 3.32374e-15
  8910.3700 7.78236e-14 3.46797e-15
  8913.1400 7.80698e-14 3.61485e-15
  8915.9100 7.78120e-14 3.41362e-15
  8918.6800 7.65738e-14 3.22427e-15
  8921.4500 7.64166e-14 3.15201e-15
  8924.2200 7.65876e-14 3.16314e-15
  8926.9900 7.59760e-14 3.23916e-15
  8929.7600 7.54850e-14 3.36707e-15
  8932.5300 7.38700e-14 3.48213e-15
  8935.3000 7.32644e-14 3.27155e-15
  8938.0700 7.22380e-14 3.10925e-15
  8940.8400 7.14361e-14 3.01313e-15
  8943.6100 7.06960e-14 2.97304e-15
  8946.3800 7.00437e-14 3.04529e-15
  8949.1500 7.00915e-14 3.19371e-15
  8951.9200 6.87662e-14 3.30955e-15
  8954.6900 6.75414e-14 3.28463e-15
  8957.4600 6.63888e-14 3.07046e-15
  8960.2300 6.54529e-14 2.86783e-15
  8963.0000 6.52630e-14 2.84024e-15
  8965.7700 6.48972e-14 2.90274e-15
  8968.5400 6.44038e-14 3.01322e-15
  8971.3100 6.44770e-14 3.16714e-15
  8974.0800 6.32113e-14 3.01461e-15
  8976.8400 6.29955e-14 2.86290e-15
  8979.6100 6.24567e-14 2.76161e-15
  8982.3800 6.23373e-14 2.75238e-15
  8985.1500 6.16395e-14 2.81284e-15
  8987.9200 5.99322e-14 2.89138e-15
  8990.6900 5.94342e-14 3.03517e-15
  8993.4600 6.02659e-14 2.96772e-15
  8996.2300 6.08730e-14 2.81153e-15
  8999.0000 6.02287e-14 2.70522e-15
  9001.7700 5.92373e-14 2.67592e-15
  9004.5400 5.85038e-14 2.71913e-15
  9007.3100 5.87267e-14 2.81696e-15
  9010.0800 5.85948e-14 2.93681e-15
  9012.8500 5.78943e-14 2.83855e-15
  9015.6200 5.79936e-14 2.72915e-15
  9018.3900 5.78346e-14 2.64474e-15
  9021.1600 5.61288e-14 2.57075e-15
  9023.9300 5.56283e-14 2.58783e-15
  9026.7000 5.71584e-14 2.72031e-15
  9029.4700 5.74794e-14 2.84384e-15
  9032.2400 5.71477e-14 2.76478e-15
  9035.0100 5.76503e-14 2.65397e-15
  9037.7800 5.75083e-14 2.55880e-15
  9040.5500 5.54532e-14 2.46650e-15
  9043.3200 5.56743e-14 2.48388e-15
  9046.0900 5.53997e-14 2.56055e-15
  9048.8600 5.50634e-14 2.66444e-15
  9051.6300 5.51225e-14 2.65929e-15
  9054.4000 5.55139e-14 2.56285e-15
  9057.1700 5.60564e-14 2.48578e-15
  9059.9400 5.56098e-14 2.45266e-15
  9062.7100 5.63823e-14 2.51434e-15
  9065.4800 5.75253e-14 2.63838e-15
  9068.2500 5.64782e-14 2.72099e-15
  9071.0200 5.57805e-14 2.72542e-15
  9073.7900 5.75343e-14 2.67524e-15
  9076.5600 5.76633e-14 2.58557e-15
  9079.3300 5.73337e-14 2.53446e-15
  9082.1000 5.87529e-14 2.59469e-15
  9084.8700 5.94204e-14 2.69955e-15
  9087.6400 5.95352e-14 2.80987e-15
  9090.4100 6.01502e-14 2.83503e-15
  9093.1700 5.98550e-14 2.68695e-15
  9095.9400 6.00731e-14 2.59895e-15
  9098.7100 6.11207e-14 2.61571e-15
  9101.4800 6.12868e-14 2.65033e-15
  9104.2500 6.16375e-14 2.71672e-15
  9107.0200 6.23843e-14 2.83988e-15
  9109.7900 6.34243e-14 2.90330e-15
  9112.5600 6.30140e-14 2.77323e-15
  9115.3300 6.41159e-14 2.72931e-15
  9118.1000 6.39287e-14 2.67803e-15
  9120.8700 6.37525e-14 2.67303e-15
  9123.6400 6.52999e-14 2.79369e-15
  9126.4100 6.58849e-14 2.93158e-15
  9129.1800 6.60151e-14 2.99085e-15
  9131.9500 6.66326e-14 2.91677e-15
  9134.7200 6.77010e-14 2.86543e-15
  9137.4900 6.88698e-14 2.83276e-15
  9140.2600 6.96371e-14 2.83742e-15
  9143.0300 7.12271e-14 2.91284e-15
  9145.8000 7.26076e-14 3.05977e-15
  9148.5700 7.32546e-14 3.17869e-15
  9151.3400 7.38761e-14 3.08697e-15
  9154.1100 7.39278e-14 3.01171e-15
  9156.8800 7.54791e-14 3.00673e-15
  9159.6500 7.73789e-14 3.03891e-15
  9162.4200 7.96695e-14 3.14076e-15
  9165.1900 8.11961e-14 3.27665e-15
  9167.9600 8.16761e-14 3.39562e-15
  9170.7300 8.28442e-14 3.31247e-15
  9173.5000 8.37304e-14 3.24563e-15
  9176.2700 8.49891e-14 3.23190e-15
  9179.0400 8.72488e-14 3.27408e-15
  9181.8100 8.96972e-14 3.40756e-15
  9184.5800 9.04948e-14 3.50730e-15
  9187.3500 9.22788e-14 3.67942e-15
  9190.1200 9.37581e-14 3.57985e-15
  9192.8900 9.53126e-14 3.49606e-15
  9195.6600 9.72088e-14 3.47458e-15
  9198.4300 9.92353e-14 3.49453e-15
  9201.2000 1.01812e-13 3.63946e-15
  9203.9700 1.02790e-13 3.77886e-15
  9206.7400 1.05107e-13 3.97855e-15
  9209.5100 1.07150e-13 3.91684e-15
  9212.2800 1.07434e-13 3.79269e-15
  9215.0400 1.09300e-13 3.77421e-15
  9217.8100 1.11103e-13 3.79757e-15
  9220.5800 1.13773e-13 3.94042e-15
  9223.3500 1.14148e-13 4.06523e-15
  9226.1200 1.15467e-13 4.24346e-15
  9228.8900 1.17652e-13 4.22531e-15
  9231.6600 1.20762e-13 4.17563e-15
  9234.4300 1.21041e-13 4.08321e-15
  9237.2000 1.20660e-13 4.03768e-15
  9239.9700 1.22141e-13 4.14259e-15
  9242.7400 1.20256e-13 4.22752e-15
  9245.5100 1.22706e-13 4.44176e-15
  9248.2800 1.24761e-13 4.40574e-15
  9251.0500 1.25857e-13 4.27936e-15
  9253.8200 1.26433e-13 4.19458e-15
  9256.5900 1.26193e-13 4.14930e-15
  9259.3600 1.26553e-13 4.20845e-15
  9262.1300 1.27117e-13 4.32752e-15
  9264.9000 1.29454e-13 4.54662e-15
  9267.6700 1.30087e-13 4.50417e-15
  9270.4400 1.29214e-13 4.30499e-15
  9273.2100 1.28445e-13 4.20773e-15
  9275.9800 1.28667e-13 4.20158e-15
  9278.7500 1.29374e-13 4.29630e-15
  9281.5200 1.30448e-13 4.46685e-15
  9284.2900 1.31527e-13 4.66147e-15
  9287.0600 1.32019e-13 4.60686e-15
  9289.8300 1.31410e-13 4.43591e-15
  9292.6000 1.32311e-13 4.37129e-15
  9295.3700 1.32097e-13 4.36303e-15
  9298.1400 1.32478e-13 4.43587e-15
  9300.9100 1.33534e-13 4.61468e-15
  9303.6800 1.34849e-13 4.81495e-15
  9306.4500 1.34130e-13 4.78498e-15
  9309.2200 1.33954e-13 4.65317e-15
  9311.9900 1.33985e-13 4.57728e-15
  9314.7600 1.33578e-13 4.56564e-15
  9317.5300 1.33280e-13 4.66245e-15
  9320.3000 1.32886e-13 4.78835e-15
  9323.0700 1.33320e-13 4.97890e-15
  9325.8400 1.34416e-13 5.02598e-15
  9328.6100 1.35018e-13 4.85772e-15
  9331.3800 1.36060e-13 4.76809e-15
  9334.1500 1.36273e-13 4.73499e-15
  9336.9100 1.35084e-13 4.82012e-15
  9339.6800 1.33488e-13 4.93871e-15
  9342.4500 1.32711e-13 5.16837e-15
  9345.2200 1.32655e-13 5.18158e-15
  9347.9900 1.37529e-13 5.05877e-15
  9350.7600 1.40689e-13 4.96048e-15
  9353.5300 1.40841e-13 4.93896e-15
  9356.3000 1.36613e-13 4.88361e-15
  9359.0700 1.34707e-13 4.92822e-15
  9361.8400 1.36908e-13 5.07693e-15
  9364.6100 1.39450e-13 5.15898e-15
  9367.3800 1.37322e-13 4.98197e-15
  9370.1500 1.34696e-13 4.84469e-15
  9372.9200 1.33710e-13 4.77913e-15
  9375.6900 1.36173e-13 4.84533e-15
  9378.4600 1.34886e-13 4.87313e-15
  9381.2300 1.33710e-13 4.97703e-15
  9384.0000 1.32803e-13 5.00865e-15
  9386.7700 1.35036e-13 4.85980e-15
  9389.5400 1.37153e-13 4.70861e-15
  9392.3100 1.38866e-13 4.58980e-15
  9395.0800 1.37487e-13 4.52786e-15
  9397.8500 1.36632e-13 4.60803e-15
  9400.6200 1.34794e-13 4.73022e-15
  9403.3900 1.33576e-13 4.78746e-15
  9406.1600 1.32596e-13 4.65584e-15
  9408.9300 1.32014e-13 4.53042e-15
  9411.7000 1.30611e-13 4.44024e-15
  9414.4700 1.30805e-13 4.46112e-15
  9417.2400 1.31194e-13 4.55165e-15
  9420.0100 1.31813e-13 4.67546e-15
  9422.7800 1.29584e-13 4.76933e-15
  9425.5500 1.30009e-13 4.76084e-15
  9428.3200 1.27947e-13 4.64295e-15
  9431.0900 1.25191e-13 4.49436e-15
  9433.8600 1.26285e-13 4.47612e-15
  9436.6300 1.29123e-13 4.59078e-15
  9439.4000 1.27111e-13 4.71776e-15
  9442.1700 1.24614e-13 4.84017e-15
  9444.9400 1.22386e-13 4.58931e-15
  9447.7100 1.24365e-13 4.44430e-15
  9450.4700 1.25634e-13 4.35667e-15
  9453.2400 1.26674e-13 4.40893e-15
  9456.0100 1.24842e-13 4.51140e-15
  9458.7800 1.23739e-13 4.63679e-15
  9461.5500 1.22722e-13 4.74578e-15
  9464.3200 1.21363e-13 4.53741e-15
  9467.0900 1.21996e-13 4.43931e-15
  9469.8600 1.22085e-13 4.30179e-15
  9472.6300 1.22599e-13 4.31065e-15
  9475.4000 1.23019e-13 4.37661e-15
  9478.1700 1.22130e-13 4.49966e-15
  9480.9400 1.20613e-13 5.47213e-15
  9483.7100 1.18316e-13 5.30924e-15
  9486.4800 1.20309e-13 5.27594e-15
  9489.2500 1.21978e-13 5.31458e-15
  9492.0200 1.23284e-13 5.43716e-15
  9494.7900 1.21081e-13 5.47074e-15
  9497.5600 1.18792e-13 5.46781e-15
  9500.3300 1.14859e-13 5.28408e-15
  9503.1000 1.15275e-13 5.18956e-15
  9505.8700 1.17309e-13 5.11125e-15
  9508.6400 1.19732e-13 5.15153e-15
  9511.4100 1.19459e-13 5.13763e-15
  9514.1800 1.19826e-13 5.24239e-15
  9516.9500 1.17047e-13 5.24806e-15
  9519.7200 1.15185e-13 5.21909e-15
  9522.4900 1.13826e-13 5.14249e-15
  9525.2600 1.13906e-13 5.09185e-15
  9528.0300 1.13488e-13 5.00570e-15
  9530.8000 1.14711e-13 5.01929e-15
  9533.5700 1.14063e-13 4.97744e-15
  9536.3400 1.15210e-13 5.00998e-15
  9539.1100 1.13813e-13 5.00569e-15
  9541.8800 1.13748e-13 5.06558e-15
  9544.6500 1.15684e-13 5.18899e-15
  9547.4200 1.19945e-13 5.32829e-15
  9550.1900 1.21082e-13 5.35722e-15
  9552.9600 1.21045e-13 5.33130e-15
  9555.7300 1.19293e-13 5.29345e-15
  9558.5000 1.17611e-13 5.20624e-15
  9561.2700 1.15874e-13 5.07973e-15
  9564.0400 1.15666e-13 5.09931e-15
  9566.8100 1.16017e-13 5.13528e-15
  9569.5800 1.15864e-13 5.05626e-15
  9572.3500 1.13621e-13 4.89800e-15
  9575.1100 1.13380e-13 4.85145e-15
  9577.8800 1.11682e-13 4.82129e-15
  9580.6500 1.10030e-13 4.78280e-15
  9583.4200 1.07807e-13 4.71898e-15
  9586.1900 1.07793e-13 4.72398e-15
  9588.9600 1.07969e-13 4.77713e-15
  9591.7300 1.07579e-13 4.76873e-15
  9594.5000 1.05968e-13 4.67035e-15
  9597.2700 1.06851e-13 4.66827e-15
  9600.0400 1.07109e-13 4.65499e-15
  9602.8100 1.08560e-13 4.69283e-15
  9605.5800 1.07502e-13 4.68162e-15
  9608.3500 1.07012e-13 4.63333e-15
  9611.1200 1.06810e-13 4.59695e-15
  9613.8900 1.07183e-13 4.61465e-15
  9616.6600 1.07047e-13 4.62156e-15
  9619.4300 1.06276e-13 4.61961e-15
  9622.2000 1.04798e-13 4.59010e-15
  9624.9700 1.04395e-13 4.55748e-15
  9627.7400 1.04054e-13 4.51224e-15
  9630.5100 1.04803e-13 4.50536e-15
  9633.2800 1.06134e-13 4.59044e-15
  9636.0500 1.05825e-13 4.58656e-15
  9638.8200 1.03135e-13 4.48547e-15
  9641.5900 1.02305e-13 4.45968e-15
  9644.3600 1.02734e-13 4.49196e-15
  9647.1300 1.01791e-13 4.43952e-15
  9649.9000 1.00687e-13 4.39223e-15
  9652.6700 1.01836e-13 4.40199e-15
  9655.4400 1.01828e-13 4.38453e-15
  9658.2100 1.01094e-13 4.38876e-15
  9660.9800 1.00071e-13 4.38339e-15
  9663.7500 9.89138e-14 4.33858e-15
  9666.5200 9.74879e-14 4.26394e-15
  9669.2900 9.83516e-14 4.25954e-15
  9672.0600 9.75366e-14 4.21376e-15
  9674.8300 9.75079e-14 4.19196e-15
  9677.6000 9.72578e-14 4.18228e-15
  9680.3700 9.74503e-14 4.20318e-15
  9683.1400 9.60616e-14 4.14104e-15
  9685.9100 9.53265e-14 4.09670e-15
  9688.6800 9.48710e-14 4.08623e-15
  9691.4500 9.48584e-14 4.06502e-15
  9694.2100 9.38210e-14 4.04477e-15
  9696.9800 9.40718e-14 4.03927e-15
  9699.7500 9.28567e-14 4.02417e-15
  9702.5200 9.35749e-14 4.04038e-15
  9705.2900 9.26348e-14 3.98943e-15
  9708.0600 9.24593e-14 3.97280e-15
  9710.8300 9.21441e-14 3.98657e-15
  9713.6000 9.28361e-14 3.98984e-15
  9716.3700 9.20909e-14 3.99222e-15
  9719.1400 9.21776e-14 3.98426e-15
  9721.9100 9.10305e-14 3.95047e-15
  9724.6800 9.15542e-14 3.96199e-15
  9727.4500 9.13864e-14 3.96079e-15
  9730.2200 9.12082e-14 3.94241e-15
  9732.9900 9.02354e-14 3.92585e-15
  9735.7600 8.96343e-14 3.91691e-15
  9738.5300 8.79203e-14 3.86830e-15
  9741.3000 8.82302e-14 3.86086e-15
  9744.0700 8.81105e-14 3.84872e-15
  9746.8400 8.87479e-14 3.86656e-15
  9749.6100 8.88067e-14 3.86264e-15
  9752.3800 8.82966e-14 3.84106e-15
  9755.1500 8.79748e-14 3.84417e-15
  9757.9200 8.74097e-14 3.81606e-15
  9760.6900 8.68622e-14 3.80634e-15
  9763.4600 8.82912e-14 3.84080e-15
  9766.2300 8.74765e-14 3.81553e-15
  9769.0000 8.83108e-14 3.80434e-15
  9771.7700 8.86407e-14 3.81897e-15
  9774.5400 8.93304e-14 3.84182e-15
  9777.3100 8.82261e-14 3.80868e-15
  9780.0800 8.90963e-14 3.84225e-15
  9782.8500 8.83352e-14 3.83094e-15
  9785.6200 8.95404e-14 3.85297e-15
  9788.3900 8.91305e-14 3.84779e-15
  9791.1600 8.90379e-14 3.84593e-15
  9793.9300 8.95783e-14 3.87186e-15
  9796.7000 9.08054e-14 3.89660e-15
  9799.4700 9.07847e-14 3.90336e-15
  9802.2400 9.08733e-14 3.89125e-15
  9805.0100 9.06851e-14 3.88084e-15
  9807.7800 9.17419e-14 3.88889e-15
  9810.5400 9.20389e-14 3.90671e-15
  9813.3100 9.32027e-14 3.94033e-15
  9816.0800 9.28828e-14 3.93406e-15
  9818.8500 9.32659e-14 3.97384e-15
  9821.6200 9.31792e-14 3.96474e-15
  9824.3900 9.40295e-14 3.96676e-15
  9827.1600 9.41842e-14 3.98670e-15
  9829.9300 9.43680e-14 3.98108e-15
  9832.7000 9.36512e-14 3.95376e-15
  9835.4700 9.43362e-14 3.96866e-15
  9838.2400 9.38093e-14 3.95764e-15
  9841.0100 9.37348e-14 3.95022e-15
  9842.6400 9.43221e-14 4.12918e-15
  9845.8700 9.32299e-14 3.78942e-15
  9849.1000 9.17755e-14 3.59521e-15
  9852.3300 9.09220e-14 3.54892e-15
  9855.5600 8.96517e-14 3.68168e-15
  9858.7900 8.91183e-14 3.93376e-15
  9862.0200 8.80056e-14 3.88984e-15
  9865.2400 8.83389e-14 3.61101e-15
  9868.4700 8.78101e-14 3.44455e-15
  9871.7000 8.57313e-14 3.37659e-15
  9874.9300 8.40805e-14 3.46354e-15
  9878.1600 8.38097e-14 3.70507e-15
  9881.3900 8.36621e-14 3.70419e-15
  9884.6200 8.36109e-14 3.44451e-15
  9887.8400 8.23125e-14 3.25662e-15
  9891.0700 8.23884e-14 3.24194e-15
  9894.3000 8.17717e-14 3.34202e-15
  9897.5300 8.20633e-14 3.59364e-15
  9900.7600 8.13144e-14 3.61537e-15
  9903.9900 8.02709e-14 3.33228e-15
  9907.2200 8.07677e-14 3.18924e-15
  9910.4400 8.03538e-14 3.15078e-15
  9913.6700 8.01269e-14 3.26961e-15
  9916.9000 8.02854e-14 3.50088e-15
  9920.1300 7.95996e-14 3.54218e-15
  9923.3600 7.92920e-14 3.27207e-15
  9926.5900 7.91309e-14 3.09763e-15
  9929.8200 7.93682e-14 3.08786e-15
  9933.0400 8.02537e-14 3.24693e-15
  9936.2700 7.93167e-14 3.42855e-15
  9939.5000 7.85804e-14 3.46774e-15
  9942.7300 8.02430e-14 3.27462e-15
  9945.9600 8.01464e-14 3.11601e-15
  9949.1900 7.99474e-14 3.09283e-15
  9952.4200 8.13801e-14 3.23622e-15
  9955.6400 8.10173e-14 3.43424e-15
  9958.8700 8.13650e-14 3.54564e-15
  9962.1000 8.13843e-14 3.29781e-15
  9965.3300 8.12691e-14 3.14217e-15
  9968.5600 8.18338e-14 3.12010e-15
  9971.7900 8.13500e-14 3.19675e-15
  9975.0200 8.14974e-14 3.41015e-15
  9978.2400 8.15655e-14 3.51852e-15
  9981.4700 8.16379e-14 3.26449e-15
  9984.7000 8.19592e-14 3.12051e-15
  9987.9300 8.21491e-14 3.09680e-15
  9991.1600 8.25470e-14 3.19846e-15
  9994.3900 8.23093e-14 3.38065e-15
  9997.6200 8.23600e-14 3.51543e-15
 10000.8000 8.25029e-14 3.26621e-15
 10004.1000 8.23486e-14 3.10092e-15
 10007.3000 8.25112e-14 3.07135e-15
 10010.5000 8.23547e-14 3.14094e-15
 10013.8000 8.27424e-14 3.35589e-15
 10017.0000 8.35561e-14 3.53476e-15
 10020.2000 8.33218e-14 3.29315e-15
 10023.4000 8.32596e-14 3.13006e-15
 10026.7000 8.26152e-14 3.05433e-15
 10029.9000 8.35866e-14 3.16722e-15
 10033.1000 8.38653e-14 3.35832e-15
 10036.4000 8.39417e-14 3.50343e-15
 10039.6000 8.36896e-14 3.26630e-15
 10042.8000 8.34880e-14 3.11400e-15
 10046.0000 8.39689e-14 3.08441e-15
 10049.3000 8.38098e-14 3.16036e-15
 10052.5000 8.36788e-14 3.33533e-15
 10055.7000 8.36719e-14 3.49539e-15
 10059.0000 8.28372e-14 3.22410e-15
 10062.2000 8.24571e-14 3.06264e-15
 10065.4000 8.24768e-14 3.00750e-15
 10068.6000 8.25011e-14 3.08552e-15
 10071.9000 8.17050e-14 3.24226e-15
 10075.1000 8.30732e-14 3.44137e-15
 10078.3000 8.28917e-14 3.21739e-15
 10081.6000 8.18334e-14 3.02371e-15
 10084.8000 8.12811e-14 2.95866e-15
 10088.0000 8.06025e-14 2.99606e-15
 10091.2000 8.03438e-14 3.13449e-15
 10094.5000 8.02667e-14 3.31388e-15
 10097.7000 7.99828e-14 3.09380e-15
 10100.9000 8.01725e-14 2.95324e-15
 10104.2000 7.98002e-14 2.88755e-15
 10107.4000 8.08198e-14 2.97739e-15
 10110.6000 8.04012e-14 3.12282e-15
 10113.8000 8.12818e-14 3.33656e-15
 10117.1000 8.06704e-14 3.10618e-15
 10120.3000 7.95851e-14 2.91558e-15
 10123.5000 7.94061e-14 2.84871e-15
 10126.8000 7.85214e-14 2.87406e-15
 10130.0000 7.92394e-14 3.03245e-15
 10133.2000 7.89172e-14 3.22031e-15
 10136.4000 7.96869e-14 3.05155e-15
 10139.7000 7.90534e-14 2.87511e-15
 10142.9000 7.87643e-14 2.85156e-15
 10146.1000 8.01046e-14 2.93358e-15
 10149.4000 7.90716e-14 2.99942e-15
 10152.6000 7.83313e-14 3.15943e-15
 10155.8000 7.80459e-14 2.97764e-15
 10159.0000 7.77085e-14 2.82748e-15
 10162.3000 7.85799e-14 2.79693e-15
 10165.5000 7.87393e-14 2.83871e-15
 10168.7000 7.94831e-14 2.99787e-15
 10172.0000 7.89585e-14 3.16201e-15
 10175.2000 7.94215e-14 3.01776e-15
 10178.4000 7.98201e-14 2.87421e-15
 10181.6000 7.91947e-14 2.80093e-15
 10184.9000 7.90842e-14 2.82012e-15
 10188.1000 7.93546e-14 2.95242e-15
 10191.3000 7.98667e-14 3.14484e-15
 10194.6000 7.98521e-14 3.00249e-15
 10197.8000 7.95742e-14 2.85155e-15
 10201.0000 8.04319e-14 2.81402e-15
 10204.2000 8.04872e-14 2.84325e-15
 10207.5000 8.03705e-14 2.95339e-15
 10210.7000 8.03606e-14 3.11896e-15
 10213.9000 8.06829e-14 3.01163e-15
 10217.2000 8.09769e-14 2.87668e-15
 10220.4000 8.08132e-14 2.80154e-15
 10223.6000 8.10601e-14 2.83575e-15
 10226.8000 8.14933e-14 2.96230e-15
 10230.1000 8.17543e-14 3.13762e-15
 10233.3000 8.20115e-14 3.03431e-15
 10236.5000 8.20039e-14 2.88291e-15
 10239.8000 8.25064e-14 2.82321e-15
 10243.0000 8.14889e-14 2.81915e-15
 10246.2000 8.17230e-14 2.93031e-15
 10249.4000 8.26327e-14 3.12727e-15
 10252.7000 8.21917e-14 3.00914e-15
 10255.9000 8.21217e-14 2.86776e-15
 10259.1000 8.21864e-14 2.80466e-15
 10262.4000 8.23666e-14 2.81564e-15
 10265.6000 8.18409e-14 2.90912e-15
 10268.8000 8.19889e-14 3.07623e-15
 10272.0000 8.21144e-14 2.99852e-15
 10275.3000 8.15363e-14 2.83823e-15
 10278.5000 8.16160e-14 2.76215e-15
 10281.7000 8.12459e-14 2.76866e-15
 10285.0000 8.17737e-14 2.89524e-15
 10288.2000 8.19035e-14 3.04736e-15
 10291.4000 8.10363e-14 2.93965e-15
 10294.6000 8.05002e-14 2.80120e-15
 10297.9000 8.03041e-14 2.71391e-15
 10301.1000 8.05741e-14 2.74211e-15
 10304.3000 8.02004e-14 2.82677e-15
 10307.6000 7.94373e-14 2.94502e-15
 10310.8000 7.87318e-14 2.86916e-15
 10314.0000 7.87848e-14 2.73774e-15
 10317.2000 7.89632e-14 2.67510e-15
 10320.5000 7.85546e-14 2.66797e-15
 10323.7000 7.79943e-14 2.73864e-15
 10326.9000 7.80726e-14 2.88335e-15
 10330.2000 7.76106e-14 2.82674e-15
 10333.4000 7.73278e-14 2.69406e-15
 10336.6000 7.67275e-14 2.59935e-15
 10339.8000 7.64862e-14 2.60024e-15
 10343.1000 7.58028e-14 2.64670e-15
 10346.3000 7.21283e-14 2.81854e-15
 10349.5000 7.15080e-14 2.80739e-15
 10352.8000 7.51876e-14 2.61000e-15
 10356.0000 7.43047e-14 2.52892e-15
 10359.2000 7.34556e-14 2.50396e-15
 10362.4000 7.31203e-14 2.57526e-15
 10365.7000 7.31845e-14 2.70878e-15
 10368.9000 7.28866e-14 2.67908e-15
 10372.1000 7.19341e-14 2.52639e-15
 10375.4000 7.14830e-14 2.44774e-15
 10378.6000 7.11730e-14 2.43867e-15
 10381.8000 7.07474e-14 2.49985e-15
 10385.0000 7.09711e-14 2.63441e-15
 10388.3000 7.09422e-14 2.62360e-15
 10391.5000 7.02757e-14 2.47993e-15
 10394.7000 7.02946e-14 2.40738e-15
 10398.0000 6.99383e-14 2.39747e-15
 10401.2000 6.91088e-14 2.45152e-15
 10404.4000 6.87051e-14 2.55404e-15
 10407.7000 6.89003e-14 2.54950e-15
 10410.9000 6.84386e-14 2.41889e-15
 10414.1000 6.73468e-14 2.31702e-15
 10417.3000 6.74096e-14 2.33014e-15
 10420.6000 6.74006e-14 2.38025e-15
 10423.8000 6.71436e-14 2.47991e-15
 10427.0000 6.69587e-14 2.49079e-15
 10430.3000 6.67634e-14 2.37597e-15
 10433.5000 6.67934e-14 2.33330e-15
 10436.7000 6.81901e-14 2.43228e-15
 10439.9000 6.64489e-14 2.34817e-15
 10443.2000 6.63597e-14 2.44416e-15
 10446.4000 6.63099e-14 2.46196e-15
 10449.6000 6.58990e-14 2.34240e-15
 10452.9000 6.58548e-14 2.28050e-15
 10456.1000 6.59033e-14 2.27248e-15
 10459.3000 6.60728e-14 2.32576e-15
 10462.5000 6.59790e-14 2.42019e-15
 10465.8000 6.56540e-14 2.43748e-15
 10469.0000 6.54658e-14 2.32521e-15
 10472.2000 6.51901e-14 2.25116e-15
 10475.5000 6.52911e-14 2.24734e-15
 10478.7000 6.56707e-14 2.30573e-15
 10481.9000 6.55718e-14 2.40445e-15
 10485.1000 6.54526e-14 2.42640e-15
 10488.4000 6.52276e-14 2.31097e-15
 10491.6000 6.55014e-14 2.24982e-15
 10494.8000 6.57526e-14 2.25214e-15
 10498.1000 6.54768e-14 2.28501e-15
 10501.3000 6.53743e-14 2.38103e-15
 10504.5000 6.53737e-14 2.42101e-15
 10507.7000 6.51964e-14 2.30632e-15
 10511.0000 6.48143e-14 2.23147e-15
 10514.2000 6.42356e-14 2.19778e-15
 10517.4000 6.48365e-14 2.26305e-15
 10520.7000 6.47732e-14 2.34563e-15
 10523.9000 6.46877e-14 2.39250e-15
 10527.1000 6.49578e-14 2.30761e-15
 10530.3000 6.46290e-14 2.22259e-15
 10533.6000 6.39257e-14 2.19138e-15
 10536.8000 6.32569e-14 2.20557e-15
 10540.0000 6.31385e-14 2.29975e-15
 10543.3000 6.31734e-14 2.37752e-15
 10546.5000 6.28626e-14 2.24813e-15
 10549.7000 6.29430e-14 2.17525e-15
 10552.9000 6.21900e-14 2.14258e-15
 10556.2000 6.14563e-14 2.16172e-15
 10559.4000 6.09013e-14 2.22506e-15
 10562.6000 6.10746e-14 2.29374e-15
 10565.9000 6.03982e-14 2.18242e-15
 10569.1000 5.98515e-14 2.08970e-15
 10572.3000 5.91358e-14 2.05980e-15
 10575.5000 5.85678e-14 2.07827e-15
 10578.8000 5.83275e-14 2.15272e-15
 10582.0000 5.81511e-14 2.19610e-15
 10585.2000 5.72424e-14 2.08299e-15
 10588.5000 5.70719e-14 2.02922e-15
 10591.7000 5.66790e-14 2.00258e-15
 10594.9000 5.63473e-14 2.01993e-15
 10598.1000 5.56080e-14 2.06859e-15
 10601.4000 5.51250e-14 2.11924e-15
 10604.6000 5.45638e-14 2.02972e-15
 10607.8000 5.42136e-14 1.94830e-15
 10611.1000 5.36451e-14 1.92173e-15
 10614.3000 5.29180e-14 1.92402e-15
 10617.5000 5.22504e-14 1.97651e-15
 10620.7000 5.16795e-14 2.01696e-15
 10624.0000 5.11885e-14 1.93363e-15
 10627.2000 5.07143e-14 1.86163e-15
 10630.4000 4.96959e-14 1.81253e-15
 10633.7000 4.91033e-14 1.82510e-15
 10636.9000 4.88635e-14 1.87986e-15
 10640.1000 4.86576e-14 1.96641e-15
 10643.3000 4.72420e-14 1.81551e-15
 10646.6000 4.54441e-14 1.71476e-15
 10649.8000 4.51866e-14 1.69514e-15
 10653.0000 4.45577e-14 1.69511e-15
 10656.3000 4.36630e-14 1.72687e-15
 10659.5000 4.32235e-14 1.77909e-15
 10662.7000 4.23645e-14 1.68656e-15
 10665.9000 4.18056e-14 1.62226e-15
 10669.2000 4.09309e-14 1.58321e-15
 10672.4000 3.98875e-14 1.57652e-15
 10675.6000 3.86578e-14 1.58327e-15
 10678.9000 3.82547e-14 1.63191e-15
 10682.1000 3.75127e-14 1.55613e-15
 10685.3000 3.68828e-14 1.49480e-15
 10688.5000 3.60886e-14 1.45759e-15
 10691.8000 3.53087e-14 1.44541e-15
 10695.0000 3.45229e-14 1.46635e-15
 10698.2000 3.33986e-14 1.48289e-15
 10701.5000 3.25305e-14 1.40510e-15
 10704.7000 3.17821e-14 1.33766e-15
 10707.9000 3.12241e-14 1.31276e-15
 10711.1000 3.10962e-14 1.32162e-15
 10714.4000 3.06309e-14 1.34475e-15
 10717.6000 3.00569e-14 1.36924e-15
 10720.8000 2.98296e-14 1.32736e-15
 10724.1000 2.93809e-14 1.27431e-15
 10727.3000 2.83928e-14 1.23267e-15
 10730.5000 2.84137e-14 1.23834e-15
 10733.7000 2.76261e-14 1.24929e-15
 10737.0000 2.74806e-14 1.36094e-15
 10740.2000 2.75338e-14 1.27370e-15
 10743.4000 2.72165e-14 1.20897e-15
 10746.7000 2.66636e-14 1.18113e-15
 10749.9000 2.68725e-14 1.18916e-15
 10753.1000 2.62711e-14 1.20756e-15
 10756.3000 2.67996e-14 1.25863e-15
 10759.6000 2.63731e-14 1.22364e-15
 10762.8000 2.65437e-14 1.18496e-15
 10766.0000 2.63265e-14 1.16270e-15
 10769.3000 2.61306e-14 1.16297e-15
 10772.5000 2.57943e-14 1.19104e-15
 10775.7000 2.59070e-14 1.22775e-15
 10778.9000 2.61295e-14 1.21806e-15
 10782.2000 2.59654e-14 1.17500e-15
 10785.4000 2.61202e-14 1.13696e-15
 10788.6000 2.63961e-14 1.32360e-15
 10791.9000 2.64059e-14 1.28174e-15
 10795.1000 2.69943e-14 1.27062e-15
 10798.3000 2.66697e-14 1.22711e-15
 10801.5000 2.68259e-14 1.19355e-15
 10804.8000 2.67930e-14 1.17961e-15
 10808.0000 2.72570e-14 1.19530e-15
 10811.2000 2.71498e-14 1.21876e-15
 10814.5000 2.77601e-14 1.27271e-15
 10817.7000 2.69323e-14 1.28844e-15
 10820.9000 2.76750e-14 1.24735e-15
 10824.1000 2.81100e-14 1.21473e-15
 10827.4000 2.82923e-14 1.52967e-15
 10830.6000 2.87160e-14 1.54833e-15
 10833.8000 2.88242e-14 1.55262e-15
 10837.1000 2.90770e-14 1.55826e-15
 10840.3000 2.93853e-14 1.56647e-15
 10843.5000 2.90644e-14 1.55330e-15
 10846.7000 2.96821e-14 1.56841e-15
 10850.0000 2.95624e-14 1.56342e-15
 10853.2000 3.00694e-14 1.57798e-15
 10856.4000 2.99643e-14 1.57835e-15
 10859.7000 3.02213e-14 1.58978e-15
 10862.9000 3.06409e-14 1.60252e-15
 10866.1000 3.06791e-14 1.59564e-15
 10869.3000 3.05675e-14 1.58816e-15
 10872.6000 3.08691e-14 1.58993e-15
 10875.8000 3.06744e-14 1.58793e-15
 10879.0000 3.09444e-14 1.59294e-15
 10882.3000 3.10415e-14 1.59625e-15
 10885.5000 3.12862e-14 1.59997e-15
 10888.7000 3.11456e-14 1.59526e-15
 10891.9000 3.13455e-14 1.59866e-15
 10895.2000 3.12379e-14 1.59571e-15
 10898.4000 3.13544e-14 1.59400e-15
 10901.6000 3.10265e-14 1.58443e-15
 10904.9000 3.11162e-14 1.57970e-15
 10908.1000 3.13613e-14 1.59671e-15
 10911.3000 3.14411e-14 1.59083e-15
 10914.5000 3.14524e-14 1.59356e-15
 10917.8000 3.11429e-14 1.58113e-15
 10921.0000 3.05729e-14 1.57086e-15
 10924.2000 3.13046e-14 1.59088e-15
 10927.5000 3.04846e-14 1.56269e-15
 10930.7000 3.11416e-14 1.58307e-15
 10933.9000 3.05474e-14 1.56212e-15
 10937.1000 3.07716e-14 1.56870e-15
 10940.4000 3.01733e-14 1.54599e-15
 10943.6000 3.05191e-14 1.55636e-15
 10946.8000 2.97159e-14 1.52606e-15
 10950.1000 2.95208e-14 1.51023e-15
 10953.3000 2.95480e-14 1.52678e-15
 10956.5000 2.95605e-14 1.52302e-15
 10959.7000 2.86999e-14 1.48364e-15
 10963.0000 2.86447e-14 1.47588e-15
 10966.2000 2.84575e-14 1.48589e-15
 10969.4000 2.82136e-14 1.46226e-15
 10972.7000 2.73561e-14 1.42857e-15
 10975.9000 2.70365e-14 1.40871e-15
 10979.1000 2.66500e-14 1.40323e-15
 10982.3000 2.63527e-14 1.38314e-15
 10985.6000 2.63089e-14 1.38458e-15
 10988.8000 2.57174e-14 1.36053e-15
 10992.0000 2.51017e-14 1.34812e-15
 10995.3000 2.55380e-14 1.36147e-15
 10998.5000 2.55547e-14 1.36624e-15
 11001.7000 2.50985e-14 1.34431e-15
 11004.9000 2.49840e-14 1.34349e-15
 11008.2000 2.50263e-14 1.34061e-15
 11011.4000 2.43469e-14 1.31568e-15
 11014.6000 2.43619e-14 1.31518e-15
 11017.9000 2.40698e-14 1.30626e-15
 11021.1000 2.39127e-14 1.30020e-15
 11024.3000 2.35021e-14 1.29516e-15
 11027.5000 2.40687e-14 1.30506e-15
 11030.8000 2.36698e-14 1.29219e-15
 11034.0000 2.34258e-14 1.27445e-15
 11037.2000 2.31404e-14 1.26617e-15
 11040.5000 2.28977e-14 1.25339e-15
 11043.7000 2.26841e-14 1.25729e-15
 11046.9000 2.27437e-14 1.25458e-15
 11050.1000 2.26317e-14 1.25285e-15
 11053.4000 2.28159e-14 1.25023e-15
 11056.6000 2.25558e-14 1.24724e-15
 11059.8000 2.21617e-14 1.23507e-15
 11063.1000 2.18869e-14 1.22708e-15
 11066.3000 2.21602e-14 1.23014e-15
 11069.5000 2.21331e-14 1.22791e-15
 11072.7000 2.19696e-14 1.20962e-15
 11076.0000 2.16125e-14 1.20374e-15
 11079.2000 2.17050e-14 1.21210e-15
 11082.4000 2.14315e-14 1.20894e-15
 11085.7000 2.17868e-14 1.21572e-15
 11088.9000 2.15088e-14 1.20589e-15
 11092.1000 2.19003e-14 1.20941e-15
 11095.3000 2.16822e-14 1.20195e-15
 11098.6000 2.17601e-14 1.20168e-15
 11101.8000 2.15591e-14 1.20151e-15
 11105.0000 2.14196e-14 1.20037e-15
 11108.3000 2.12089e-14 1.20511e-15
 11111.5000 2.11932e-14 1.20385e-15
 11114.7000 2.14213e-14 1.20799e-15
 11117.9000 2.15761e-14 1.20579e-15
 11121.2000 2.13904e-14 1.19812e-15
 11124.4000 2.13171e-14 1.19226e-15
 11127.6000 2.06912e-14 1.18794e-15
 11130.9000 2.07382e-14 1.20376e-15
 11134.1000 2.10787e-14 1.23234e-15
 11137.3000 2.13502e-14 1.23031e-15
 11140.5000 2.15858e-14 1.22797e-15
 11143.8000 2.13520e-14 1.20471e-15
 11147.0000 2.08664e-14 1.20215e-15
 11150.2000 2.08117e-14 1.21885e-15
 11153.5000 2.06712e-14 1.22744e-15
 11156.7000 2.05924e-14 1.22559e-15
 11159.9000 1.98176e-14 1.21824e-15
 11163.1000 1.94345e-14 1.23633e-15
 11166.4000 1.94920e-14 1.26973e-15
 11169.6000 2.02546e-14 1.29578e-15
 11172.8000 2.05313e-14 1.27092e-15
 11176.1000 2.07625e-14 1.24070e-15
 11179.3000 2.04986e-14 1.21966e-15
 11182.5000 1.98747e-14 1.19262e-15
 11185.7000 1.90633e-14 1.18197e-15
 11189.0000 1.89390e-14 1.19980e-15
 11192.2000 1.88367e-14 1.20931e-15
 11195.4000 1.90065e-14 1.20986e-15
 11198.7000 1.89629e-14 1.20290e-15
 11201.9000 1.91064e-14 1.19130e-15
 11205.1000 1.89581e-14 1.17969e-15
 11208.3000 1.89190e-14 1.16135e-15
 11211.6000 1.82155e-14 1.13929e-15
 11214.8000 1.73846e-14 1.12810e-15
 11218.0000 1.65878e-14 1.15095e-15
 11221.3000 1.61930e-14 1.18975e-15
 11224.5000 1.66871e-14 1.24228e-15
 11227.7000 1.79317e-14 1.25298e-15
 11230.9000 1.78725e-14 1.20899e-15
 11234.2000 1.69642e-14 1.14833e-15
 11237.4000 1.69953e-14 1.14291e-15
 11240.6000 1.73198e-14 1.13324e-15
 11243.9000 1.72304e-14 1.09770e-15
 11247.1000 1.62650e-14 1.05501e-15
 11250.3000 1.49416e-14 1.04684e-15
 11253.5000 1.42164e-14 1.08405e-15
 11256.8000 1.45598e-14 1.14504e-15
 11260.0000 1.51693e-14 1.13556e-15
 11263.2000 1.58267e-14 1.11087e-15
 11266.5000 1.52566e-14 1.03776e-15
 11269.7000 1.43729e-14 9.96348e-16
 11272.9000 1.41446e-14 1.00157e-15
 11276.1000 1.37753e-14 1.01133e-15
 11279.4000 1.35297e-14 9.99653e-16
 11282.6000 1.42483e-14 1.02037e-15
 11285.8000 1.37651e-14 9.84604e-16
 11289.1000 1.31123e-14 9.63443e-16
 11292.3000 1.29205e-14 9.69847e-16
 11295.5000 1.26490e-14 9.76642e-16
 11298.7000 1.27723e-14 9.74458e-16
 11302.0000 1.35065e-14 9.82630e-16
 11305.2000 1.36407e-14 9.37768e-16
 11308.4000 1.32994e-14 8.87494e-16
 11311.7000 1.24298e-14 8.37729e-16
 11314.9000 1.23449e-14 8.35015e-16
 11318.1000 1.22902e-14 8.37925e-16
 11321.3000 1.17535e-14 8.26704e-16
 11324.6000 1.13847e-14 8.19557e-16
 11327.8000 1.11625e-14 8.25532e-16
 11331.0000 1.09597e-14 8.35683e-16
 11334.3000 1.04641e-14 8.54248e-16
 11337.5000 9.58694e-15 8.51058e-16
 11340.7000 8.74118e-15 8.71315e-16
 11343.9000 8.62979e-15 9.45838e-16
 11347.2000 9.92901e-15 1.07191e-15
 11350.4000 1.02598e-14 1.06269e-15
 11353.6000 1.08071e-14 9.76191e-16
 11356.9000 1.05605e-14 8.97547e-16
 11360.1000 1.01618e-14 8.33524e-16
 11363.3000 1.01018e-14 7.94198e-16
 11366.5000 1.02266e-14 7.69988e-16
 11369.8000 1.00587e-14 7.38452e-16
 11373.0000 9.76424e-15 7.24217e-16
 11376.2000 9.47784e-15 7.16721e-16
 11379.5000 9.07707e-15 6.98507e-16
 11382.7000 9.42946e-15 8.08477e-16
 11385.9000 1.06129e-14 9.52352e-16
 11389.1000 9.81273e-15 7.41040e-16
 11392.4000 8.98244e-15 6.84938e-16
 11395.6000 8.95824e-15 6.79845e-16
 11398.8000 8.53505e-15 6.78500e-16
 11402.1000 8.63829e-15 6.93622e-16
 11405.3000 8.93224e-15 7.10436e-16
 11408.5000 8.53595e-15 6.96279e-16
 11411.7000 8.39464e-15 6.95722e-16
 11415.0000 8.62756e-15 6.98595e-16
 11418.2000 8.49652e-15 6.91972e-16
 11421.4000 8.40203e-15 6.74812e-16
 11424.7000 8.39308e-15 6.66032e-16
 11427.9000 8.36459e-15 6.51544e-16
 11431.1000 8.15470e-15 6.44712e-16
 11434.3000 7.99997e-15 6.48495e-16
 11437.6000 7.65748e-15 6.56752e-16
 11440.8000 7.17592e-15 6.55279e-16
 11444.0000 7.54548e-15 6.85615e-16
 11447.3000 7.59231e-15 6.88722e-16
 11450.5000 7.73667e-15 6.87812e-16
 11453.7000 7.89022e-15 6.87421e-16
 11456.9000 7.62575e-15 6.77318e-16
 11460.2000 7.37500e-15 6.63866e-16
 11463.4000 7.37164e-15 6.75687e-16
 11466.6000 7.42685e-15 6.92445e-16
 11469.9000 7.55445e-15 7.11489e-16
 11473.1000 7.86824e-15 7.06968e-16
 11476.3000 7.87921e-15 6.88444e-16
 11479.5000 8.03474e-15 6.68366e-16
 11482.8000 8.06806e-15 6.52226e-16
 11486.0000 7.60257e-15 6.27582e-16
 11489.2000 7.43324e-15 6.35092e-16
 11492.5000 7.50459e-15 6.50972e-16
 11495.7000 7.95296e-15 6.80374e-16
 11498.9000 7.89743e-15 6.80804e-16
 11500.3000 7.78980e-15 7.21682e-16
 11504.2000 7.80461e-15 6.66062e-16
 11508.0000 7.82336e-15 6.22212e-16
 11511.9000 7.79044e-15 5.98815e-16
 11515.8000 7.70094e-15 6.30888e-16
 11519.6000 7.37671e-15 6.70075e-16
 11523.5000 7.88508e-15 6.97541e-16
 11527.4000 7.83169e-15 6.31894e-16
 11531.3000 8.01230e-15 6.12367e-16
 11535.1000 7.73121e-15 6.22609e-16
 11539.0000 7.54862e-15 6.69671e-16
 11542.9000 7.67352e-15 6.89979e-16
 11546.7000 8.05999e-15 6.23228e-16
 11550.6000 8.07288e-15 5.93865e-16
 11554.5000 7.85997e-15 6.06636e-16
 11558.4000 7.78767e-15 6.61352e-16
 11562.2000 7.86443e-15 6.55904e-16
 11566.1000 8.21702e-15 6.06931e-16
 11570.0000 8.10721e-15 5.79886e-16
 11573.8000 7.81297e-15 5.94191e-16
 11577.7000 8.08719e-15 6.55269e-16
 11581.6000 8.13634e-15 6.52377e-16
 11585.5000 8.22562e-15 6.03880e-16
 11589.3000 7.96454e-15 5.76270e-16
 11593.2000 7.76512e-15 5.88944e-16
 11597.1000 7.79975e-15 6.32896e-16
 11600.9000 7.84309e-15 6.37419e-16
 11604.8000 7.85904e-15 5.85861e-16
 11608.7000 7.90240e-15 5.62571e-16
 11612.6000 7.72749e-15 5.71305e-16
 11616.4000 7.71690e-15 6.09208e-16
 11620.3000 7.69308e-15 6.13801e-16
 11624.2000 7.64698e-15 5.62981e-16
 11628.0000 7.74573e-15 5.42988e-16
 11631.9000 7.72660e-15 5.52901e-16
 11635.8000 7.60378e-15 5.91979e-16
 11639.7000 7.65358e-15 6.00117e-16
 11643.5000 7.49326e-15 5.48165e-16
 11647.4000 7.53321e-15 5.33131e-16
 11651.3000 7.23859e-15 5.37364e-16
 11655.1000 7.00222e-15 5.65439e-16
 11659.0000 7.15150e-15 5.79309e-16
 11662.9000 6.96070e-15 5.30247e-16
 11666.7000 6.82041e-15 5.02858e-16
 11670.6000 6.70455e-15 5.08957e-16
 11674.5000 6.60982e-15 5.40233e-16
 11678.4000 6.53613e-15 5.47629e-16
 11682.2000 6.28313e-15 4.95939e-16
 11686.1000 6.22396e-15 4.73274e-16
 11690.0000 6.16555e-15 4.81355e-16
 11693.8000 5.97670e-15 5.07927e-16
 11697.7000 6.07864e-15 5.19777e-16
 11701.6000 6.15357e-15 4.82092e-16
 11705.5000 5.70465e-15 4.46041e-16
 11709.3000 5.47656e-15 4.46310e-16
 11713.2000 5.55920e-15 4.83682e-16
 11717.1000 5.52762e-15 4.95253e-16
 11720.9000 5.54876e-15 4.55110e-16
 11724.8000 5.14824e-15 4.20295e-16
 11728.7000 5.09833e-15 4.25732e-16
 11732.6000 4.98426e-15 4.52687e-16
 11736.4000 4.83852e-15 4.68914e-16
 11740.3000 4.76280e-15 4.25993e-16
 11744.2000 4.81286e-15 4.06272e-16
 11748.0000 4.60670e-15 4.01345e-16
 11751.9000 4.38357e-15 4.15157e-16
 11755.8000 4.31070e-15 4.27132e-16
 11759.7000 4.39269e-15 3.94549e-16
 11763.5000 4.32011e-15 3.70343e-16
 11767.4000 4.15031e-15 3.74234e-16
 11771.3000 4.19139e-15 4.09038e-16
 11775.1000 4.02540e-15 4.10703e-16
 11779.0000 3.76035e-15 3.99676e-16
 11782.9000 3.78005e-15 3.95868e-16
 11786.8000 3.87570e-15 3.60891e-16
 11790.6000 3.67259e-15 3.77508e-16
 11794.5000 3.58050e-15 3.88124e-16
 11798.4000 3.55364e-15 3.58657e-16
 11802.2000 3.56469e-15 3.38708e-16
 11806.1000 3.36402e-15 3.31240e-16
 11810.0000 3.49848e-15 3.60385e-16
 11813.9000 3.59490e-15 3.92221e-16
 11817.7000 3.29617e-15 3.48022e-16
 11821.6000 3.37054e-15 3.37460e-16
 11825.5000 3.32110e-15 3.35398e-16
 11829.3000 3.44398e-15 3.58392e-16
 11833.2000 3.51402e-15 3.73762e-16
 11837.1000 3.40693e-15 3.41429e-16
 11840.9000 3.29810e-15 3.24528e-16
 11844.8000 3.44421e-15 3.34404e-16
 11848.7000 3.05877e-15 3.39783e-16
 11852.6000 3.37435e-15 3.69073e-16
 11856.4000 3.35763e-15 3.40321e-16
 11860.3000 3.26383e-15 3.18057e-16
 11864.2000 3.21433e-15 3.16832e-16
 11868.0000 3.22588e-15 3.38923e-16
 11871.9000 3.44784e-15 3.69459e-16
 11875.8000 3.37464e-15 3.44303e-16
 11879.7000 3.34088e-15 3.30041e-16
 11883.5000 3.15849e-15 3.20276e-16
 11887.4000 3.50430e-15 3.52517e-16
 11891.3000 3.39943e-15 3.62978e-16
 11895.1000 3.25338e-15 3.30881e-16
 11899.0000 3.31610e-15 3.16128e-16
 11902.9000 3.73047e-15 3.39648e-16
 11906.8000 3.55609e-15 3.50356e-16
 11910.6000 3.44217e-15 3.64189e-16
 11914.5000 3.54532e-15 3.50964e-16
 11918.4000 3.70835e-15 3.34982e-16
 11922.2000 3.61539e-15 3.33764e-16
 11926.1000 3.51661e-15 3.46928e-16
 11930.0000 3.49911e-15 3.70156e-16
 11933.9000 3.65468e-15 3.44563e-16
 11937.7000 3.43807e-15 3.23793e-16
 11941.6000 3.59869e-15 3.30630e-16
 11945.5000 3.63852e-15 3.48992e-16
 11949.3000 3.54975e-15 3.68064e-16
 11953.2000 3.63177e-15 3.49840e-16
 11957.1000 3.78495e-15 3.33649e-16
 11961.0000 3.73245e-15 3.36689e-16
 11964.8000 3.77240e-15 3.53546e-16
 11968.7000 3.70943e-15 3.73344e-16
 11972.6000 3.73765e-15 3.54047e-16
 11976.4000 3.72946e-15 3.40398e-16
 11980.3000 3.79769e-15 3.36473e-16
 11984.2000 3.91562e-15 3.56218e-16
 11988.0000 4.25361e-15 4.00187e-16
 11991.9000 4.12235e-15 3.72025e-16
 11995.8000 3.98368e-15 3.46156e-16
 11999.7000 3.88486e-15 3.41749e-16
 12003.5000 3.63111e-15 3.46663e-16
 12007.4000 3.95845e-15 3.84712e-16
 12011.3000 3.95608e-15 3.64069e-16
 12015.1000 3.81173e-15 3.40650e-16
 12019.0000 3.85353e-15 3.43467e-16
 12022.9000 4.00364e-15 3.62239e-16
 12026.8000 4.15159e-15 3.93478e-16
 12030.6000 3.97463e-15 3.67242e-16
 12034.5000 3.80908e-15 3.45446e-16
 12038.4000 3.78194e-15 3.39671e-16
 12042.2000 3.93615e-15 3.61095e-16
 12046.1000 3.91629e-15 3.84894e-16
 12050.0000 4.08926e-15 3.68260e-16
 12053.9000 4.06650e-15 3.48251e-16
 12057.7000 4.04843e-15 3.43842e-16
 12061.6000 3.86267e-15 3.51324e-16
 12065.5000 3.99226e-15 3.78132e-16
 12069.3000 4.18913e-15 3.68040e-16
 12073.2000 4.03797e-15 3.43672e-16
 12077.1000 3.83372e-15 3.34903e-16
 12081.0000 3.90881e-15 3.52512e-16
 12084.8000 3.97718e-15 3.80356e-16
 12088.7000 3.75757e-15 3.47953e-16
 12092.6000 3.84977e-15 3.35124e-16
 12096.4000 3.91702e-15 3.32927e-16
 12100.3000 3.61383e-15 3.32774e-16
 12104.2000 3.68017e-15 3.59939e-16
 12108.1000 3.69434e-15 3.43194e-16
 12111.9000 3.86182e-15 3.36967e-16
 12115.8000 3.59567e-15 3.23272e-16
 12119.7000 3.64704e-15 3.38479e-16
 12123.5000 3.78249e-15 3.60641e-16
 12127.4000 3.78634e-15 3.45094e-16
 12131.3000 3.97779e-15 3.36607e-16
 12135.2000 3.83502e-15 3.27013e-16
 12139.0000 3.56218e-15 3.24579e-16
 12142.9000 3.56296e-15 3.42162e-16
 12146.8000 3.68172e-15 3.38652e-16
 12150.6000 3.46497e-15 3.11529e-16
 12154.5000 3.49675e-15 3.11590e-16
 12158.4000 3.42536e-15 3.15470e-16
 12162.2000 3.38634e-15 3.35515e-16
 12166.1000 3.42472e-15 3.27091e-16
 12170.0000 3.41146e-15 3.08617e-16
 12173.9000 3.20446e-15 2.96607e-16
 12177.7000 3.40751e-15 3.11859e-16
 12181.6000 3.31781e-15 3.24543e-16
 12185.5000 3.10238e-15 3.07298e-16
 12189.3000 3.17637e-15 2.97204e-16
 12193.2000 3.01084e-15 2.82510e-16
 12197.1000 3.04964e-15 3.13671e-16
 12201.0000 3.12527e-15 3.36834e-16
 12204.8000 3.06933e-15 3.04724e-16
 12208.7000 2.99172e-15 2.88483e-16
 12212.6000 3.21321e-15 2.90062e-16
 12216.4000 3.02183e-15 2.92331e-16
 12220.3000 3.06930e-15 3.13010e-16
 12224.2000 3.22276e-15 3.10924e-16
 12228.1000 2.87664e-15 2.82485e-16
 12231.9000 2.70339e-15 2.68487e-16
 12235.8000 2.91621e-15 2.91376e-16
 12239.7000 2.92038e-15 2.99869e-16
 12243.5000 2.97674e-15 2.95304e-16
 12247.4000 2.81135e-15 2.78171e-16
 12251.3000 2.87735e-15 2.76476e-16
 12255.2000 2.96143e-15 2.89038e-16
 12259.0000 2.83538e-15 2.99894e-16
 12262.9000 2.74986e-15 2.90824e-16
 12266.8000 2.91333e-15 2.79370e-16
 12270.6000 2.80999e-15 2.76916e-16
 12274.5000 2.94160e-15 2.83669e-16
 12278.4000 2.89532e-15 2.99894e-16
 12282.3000 3.03668e-15 3.00139e-16
 12286.1000 3.23132e-15 2.97714e-16
 12290.0000 3.02277e-15 2.83784e-16
 12293.9000 3.35094e-15 3.01767e-16
 12297.7000 3.29166e-15 3.11025e-16
 12301.6000 3.42879e-15 3.15910e-16
 12305.5000 3.41090e-15 3.05249e-16
 12309.3000 3.40874e-15 3.00793e-16
 12313.2000 3.48132e-15 3.05501e-16
 12317.1000 3.54863e-15 3.24684e-16
 12321.0000 3.74144e-15 3.30968e-16
 12324.8000 3.85045e-15 3.23407e-16
 12328.7000 3.73275e-15 3.13687e-16
 12332.6000 3.86138e-15 3.24142e-16
 12336.4000 3.92546e-15 3.40400e-16
 12340.3000 3.91715e-15 3.40549e-16
 12344.2000 4.16168e-15 3.40083e-16
 12348.1000 4.19360e-15 3.34186e-16
 12351.9000 4.38984e-15 3.44410e-16
 12355.8000 4.46836e-15 3.64527e-16
 12359.7000 4.67306e-15 3.75895e-16
 12363.5000 4.69703e-15 3.61951e-16
 12367.4000 4.85661e-15 3.61841e-16
 12371.3000 5.02326e-15 3.72575e-16
 12375.2000 5.29806e-15 3.98164e-16
 12379.0000 5.43023e-15 4.07833e-16
 12382.9000 5.41653e-15 3.88556e-16
 12386.8000 5.65543e-15 3.87918e-16
 12390.6000 5.59402e-15 3.96465e-16
 12394.5000 5.86205e-15 4.23634e-16
 12398.4000 6.05028e-15 4.35393e-16
 12402.3000 6.28981e-15 4.51856e-16
 12406.1000 6.48344e-15 4.19513e-16
 12410.0000 6.63908e-15 4.38067e-16
 12413.9000 6.59801e-15 4.96832e-16
 12417.7000 6.95012e-15 4.63441e-16
 12421.6000 6.96276e-15 4.48200e-16
 12425.5000 7.37706e-15 4.80122e-16
 12429.4000 7.39240e-15 4.54357e-16
 12433.2000 7.71229e-15 4.85857e-16
 12437.1000 7.73394e-15 4.93733e-16
 12441.0000 7.91134e-15 4.77386e-16
 12444.8000 8.09029e-15 4.75439e-16
 12448.7000 8.30187e-15 4.88215e-16
 12452.6000 8.38894e-15 5.10774e-16
 12456.5000 8.61863e-15 5.33318e-16
 12460.3000 8.86226e-15 5.09224e-16
 12464.2000 8.96715e-15 5.04017e-16
 12468.1000 9.00379e-15 5.12402e-16
 12471.9000 9.22262e-15 5.35767e-16
 12475.8000 9.53078e-15 5.55761e-16
 12479.7000 9.67069e-15 5.36948e-16
 12483.5000 9.90403e-15 5.32068e-16
 12487.4000 9.96156e-15 5.38591e-16
 12491.3000 1.02113e-14 5.67898e-16
 12495.2000 1.04868e-14 5.95992e-16
 12499.0000 1.05437e-14 5.67260e-16
 12502.9000 1.06629e-14 5.56979e-16
 12506.8000 1.07933e-14 5.67400e-16
 12510.6000 1.10498e-14 5.93458e-16
 12514.5000 1.10851e-14 6.05537e-16
 12518.4000 1.13406e-14 5.88490e-16
 12522.3000 1.14465e-14 5.82422e-16
 12526.1000 1.14315e-14 5.86240e-16
 12530.0000 1.17861e-14 6.16776e-16
 12533.9000 1.20078e-14 6.34765e-16
 12537.7000 1.21965e-14 6.17901e-16
 12541.6000 1.22586e-14 6.04776e-16
 12545.5000 1.24669e-14 6.16288e-16
 12549.4000 1.26295e-14 6.42304e-16
 12553.2000 1.26603e-14 6.60197e-16
 12557.1000 1.27320e-14 6.33800e-16
 12561.0000 1.30361e-14 6.31057e-16
 12564.8000 1.30220e-14 6.34424e-16
 12568.7000 1.33751e-14 6.67425e-16
 12572.6000 1.33597e-14 6.79523e-16
 12576.5000 1.33462e-14 6.55636e-16
 12580.3000 1.35764e-14 6.46462e-16
 12584.2000 1.34994e-14 6.47370e-16
 12588.1000 1.37530e-14 6.90536e-16
 12591.9000 1.38623e-14 7.04211e-16
 12595.8000 1.39586e-14 6.76065e-16
 12599.7000 1.40344e-14 6.62564e-16
 12603.6000 1.42366e-14 6.72208e-16
 12607.4000 1.42691e-14 6.99155e-16
 12611.3000 1.43702e-14 7.20590e-16
 12615.2000 1.44772e-14 6.94510e-16
 12619.0000 1.44287e-14 6.78946e-16
 12622.9000 1.45039e-14 6.88697e-16
 12626.8000 1.42501e-14 7.03726e-16
 12630.7000 1.43265e-14 7.26995e-16
 12634.5000 1.45196e-14 7.02339e-16
 12638.4000 1.42137e-14 8.73032e-16
 12642.3000 1.43836e-14 8.74010e-16
 12646.1000 1.43914e-14 8.80787e-16
 12650.0000 1.49156e-14 8.97854e-16
 12653.9000 1.48087e-14 8.92801e-16
 12657.7000 1.45921e-14 8.80218e-16
 12661.6000 1.45680e-14 8.85511e-16
 12665.5000 1.45615e-14 8.74989e-16
 12669.4000 1.45232e-14 8.78788e-16
 12673.2000 1.45756e-14 8.74227e-16
 12677.1000 1.45478e-14 8.84962e-16
 12681.0000 1.42354e-14 8.90193e-16
 12684.8000 1.42148e-14 9.14954e-16
 12688.7000 1.41075e-14 9.16098e-16
 12692.6000 1.43682e-14 9.27794e-16
 12696.5000 1.44727e-14 8.98350e-16
 12700.3000 1.44532e-14 8.76379e-16
 12704.2000 1.44115e-14 8.63425e-16
 12708.1000 1.44994e-14 8.64416e-16
 12711.9000 1.45515e-14 8.56169e-16
 12715.8000 1.45486e-14 8.62186e-16
 12719.7000 1.44672e-14 8.51926e-16
 12723.6000 1.45036e-14 8.57974e-16
 12727.4000 1.41639e-14 8.33841e-16
 12731.3000 1.44330e-14 8.48371e-16
 12735.2000 1.42398e-14 8.35523e-16
 12739.0000 1.44577e-14 8.47632e-16
 12742.9000 1.42678e-14 8.38336e-16
 12746.8000 1.42550e-14 8.43925e-16
 12750.7000 1.41641e-14 8.32015e-16
 12754.5000 1.37181e-14 8.16859e-16
 12758.4000 1.39601e-14 8.17880e-16
 12762.3000 1.36289e-14 8.09844e-16
 12766.1000 1.39472e-14 8.16535e-16
 12770.0000 1.39963e-14 8.20470e-16
 12773.9000 1.33924e-14 7.91749e-16
 12777.8000 1.35114e-14 8.00165e-16
 12781.6000 1.33814e-14 7.94399e-16
 12785.5000 1.31292e-14 7.85451e-16
 12789.4000 1.34602e-14 7.94944e-16
 12793.2000 1.31777e-14 7.83889e-16
 12797.1000 1.31495e-14 7.76586e-16
 12801.0000 1.33245e-14 7.89115e-16
 12804.9000 1.31233e-14 7.80419e-16
 12808.7000 1.27566e-14 7.65850e-16
 12812.6000 1.30738e-14 7.73851e-16
 12816.5000 1.27236e-14 7.59613e-16
 12820.3000 1.25981e-14 7.53982e-16
 12824.2000 1.23343e-14 7.40324e-16
 12828.1000 1.25207e-14 7.45188e-16
 12831.9000 1.21170e-14 7.28661e-16
 12835.8000 1.22736e-14 7.34524e-16
 12839.7000 1.18913e-14 7.17954e-16
 12843.6000 1.19317e-14 7.19417e-16
 12847.4000 1.18239e-14 7.17521e-16
 12851.3000 1.20099e-14 7.23284e-16
 12855.2000 1.18837e-14 7.18807e-16
 12859.0000 1.13994e-14 6.90773e-16
 12862.9000 1.12759e-14 6.89693e-16
 12866.8000 1.12330e-14 6.81670e-16
 12870.7000 1.11579e-14 6.83429e-16
 12874.5000 1.10103e-14 6.73847e-16
 12878.4000 1.09684e-14 6.74729e-16
 12882.3000 1.08873e-14 6.66018e-16
 12886.1000 1.08879e-14 6.75572e-16
 12890.0000 1.06425e-14 6.60150e-16
 12893.9000 1.05863e-14 6.61751e-16
 12897.8000 1.04263e-14 6.50659e-16
 12901.6000 1.03978e-14 6.54827e-16
 12905.5000 1.02681e-14 6.44656e-16
 12909.4000 1.01212e-14 6.46066e-16
 12913.2000 1.00371e-14 6.31921e-16
 12917.1000 9.93744e-15 6.30189e-16
 12921.0000 9.79594e-15 6.19999e-16
 12924.9000 9.80419e-15 6.25587e-16
 12928.7000 9.76085e-15 6.19921e-16
 12932.6000 9.63866e-15 6.18087e-16
 12936.5000 9.72062e-15 6.16381e-16
 12940.3000 9.69547e-15 6.20319e-16
 12944.2000 9.47544e-15 6.08306e-16
 12948.1000 9.29636e-15 6.06367e-16
 12952.0000 9.46148e-15 6.18189e-16
 12955.8000 9.27127e-15 6.03306e-16
 12959.7000 9.04115e-15 5.86823e-16
 12963.6000 9.12062e-15 5.97582e-16
 12967.4000 8.95561e-15 5.85107e-16
 12971.3000 8.72538e-15 5.79947e-16
 12975.2000 8.64750e-15 5.69411e-16
 12979.0000 8.80191e-15 5.81401e-16
 12982.9000 8.70829e-15 5.73953e-16
 12986.8000 8.38761e-15 5.63931e-16
 12990.7000 8.41120e-15 5.60334e-16
 12994.5000 8.45826e-15 5.67783e-16
 12998.4000 8.36383e-15 5.58256e-16
 13002.3000 8.37393e-15 5.65592e-16
 13006.1000 8.11203e-15 5.50656e-16
 13010.0000 7.92127e-15 5.44052e-16
 13013.9000 8.16550e-15 5.47450e-16
 13017.8000 8.06642e-15 5.46471e-16
 13021.6000 7.90331e-15 5.35570e-16
 13025.5000 7.77882e-15 5.35083e-16
 13029.4000 7.68187e-15 5.28148e-16
 13033.2000 7.56935e-15 5.28611e-16
 13037.1000 7.40178e-15 5.21163e-16
 13041.0000 7.33810e-15 5.24301e-16
 13044.9000 7.17939e-15 5.12197e-16
 13048.7000 7.36129e-15 5.18591e-16
 13052.6000 7.42587e-15 5.15588e-16
 13056.5000 7.29730e-15 5.15065e-16
 13060.3000 7.05875e-15 5.02192e-16
 13064.2000 7.18403e-15 5.14230e-16
 13068.1000 7.08343e-15 5.08497e-16
 13072.0000 6.82256e-15 4.97118e-16
 13075.8000 6.76126e-15 4.88933e-16
 13079.7000 6.92202e-15 5.01769e-16
 13083.6000 6.69596e-15 4.86598e-16
 13087.4000 6.64895e-15 4.86626e-16
 13091.3000 6.68413e-15 4.85773e-16
 13095.2000 6.72143e-15 4.91011e-16
 13099.1000 6.61250e-15 4.84160e-16
 13102.9000 6.59634e-15 4.89103e-16
 13106.8000 6.51240e-15 4.78069e-16
 13110.7000 6.44692e-15 4.76856e-16
 13114.5000 6.31353e-15 4.68023e-16
 13118.4000 6.33545e-15 4.70837e-16
 13122.3000 6.25729e-15 4.65103e-16
 13126.2000 6.28064e-15 4.72221e-16
 13130.0000 6.15261e-15 4.65218e-16
 13133.9000 6.08547e-15 4.66196e-16
 13137.8000 6.09807e-15 4.65710e-16
 13141.6000 6.09569e-15 4.65947e-16
 13145.5000 6.10103e-15 4.61910e-16
 13149.4000 6.05392e-15 4.61356e-16
 13153.2000 5.93685e-15 4.51665e-16
 13157.1000 6.13390e-15 4.59839e-16
 13161.0000 5.91444e-15 4.49119e-16
 13164.9000 5.85286e-15 4.50491e-16
 13168.7000 5.87039e-15 4.47727e-16
 13172.6000 5.95640e-15 4.54559e-16
 13176.5000 5.90432e-15 4.46782e-16
 13180.3000 5.69879e-15 4.40519e-16
 13184.2000 5.52187e-15 4.34010e-16
 13188.1000 5.54101e-15 4.39054e-16
 13192.0000 5.54901e-15 4.36026e-16
 13195.8000 5.60536e-15 4.44755e-16
 13199.7000 5.39508e-15 4.37893e-16
 13203.6000 5.46181e-15 4.42331e-16
 13207.4000 5.37660e-15 4.31400e-16
 13211.3000 5.35368e-15 4.30478e-16
 13215.2000 5.32320e-15 4.25380e-16
 13219.1000 5.36397e-15 4.26689e-16
 13222.9000 5.18301e-15 4.19152e-16
 13226.8000 5.28469e-15 4.27198e-16
 13230.7000 5.28160e-15 4.27828e-16
 13234.5000 4.80390e-15 4.18200e-16
 13238.4000 4.81811e-15 4.15255e-16
 13242.3000 5.22619e-15 4.18698e-16
 13246.2000 5.02863e-15 4.09002e-16
 13250.0000 5.06024e-15 4.11379e-16
 13253.9000 5.08836e-15 4.08063e-16
 13257.8000 4.85047e-15 4.02808e-16
 13261.6000 4.87002e-15 4.00354e-16
 13265.5000 4.90646e-15 4.06402e-16
 13269.4000 4.67364e-15 3.96468e-16
 13273.3000 4.77536e-15 4.02414e-16
 13277.1000 4.80384e-15 4.00996e-16
 13281.0000 4.63973e-15 4.02970e-16
 13284.9000 4.51703e-15 3.99866e-16
 13288.7000 4.62704e-15 4.06737e-16
 13292.6000 4.53981e-15 3.99858e-16
 13296.5000 4.55333e-15 3.97728e-16
 13300.3000 4.48406e-15 3.91702e-16
 13304.2000 4.43616e-15 4.09740e-16
 13308.1000 4.36279e-15 3.95091e-16
 13312.0000 4.31128e-15 4.00661e-16
 13315.8000 4.23210e-15 3.97097e-16
 13319.7000 4.26405e-15 3.97305e-16
 13323.6000 4.29638e-15 4.11833e-16
 13327.4000 4.31596e-15 4.53715e-16
 13331.3000 4.22778e-15 3.81327e-16
 13335.2000 4.34284e-15 3.90506e-16
 13339.1000 4.12848e-15 3.78312e-16
 13342.9000 3.93300e-15 3.72480e-16
 13346.8000 4.15396e-15 3.71036e-16
 13350.7000 4.27787e-15 3.74819e-16
 13354.5000 4.23623e-15 3.72529e-16
 13358.4000 4.04645e-15 3.73457e-16
 13362.3000 3.97323e-15 3.67812e-16
 13366.2000 3.95434e-15 3.69723e-16
 13370.0000 3.68036e-15 3.55208e-16
 13373.9000 3.92517e-15 3.71260e-16
 13377.8000 3.98682e-15 3.71713e-16
 13381.6000 3.94031e-15 3.67930e-16
 13385.5000 3.74525e-15 3.54192e-16
 13389.4000 3.85309e-15 3.58946e-16
 13393.3000 3.85374e-15 3.53281e-16
 13397.1000 3.92831e-15 3.66696e-16
 13401.0000 3.65286e-15 3.55768e-16
 13404.9000 3.60474e-15 3.55060e-16
 13408.7000 3.54741e-15 3.49457e-16
 13412.6000 3.55262e-15 3.47965e-16
 13416.5000 3.48561e-15 3.39567e-16
 13420.4000 3.62331e-15 3.43689e-16
 13424.2000 3.53362e-15 3.34981e-16
 13428.1000 3.44882e-15 3.36176e-16
 13432.0000 3.37194e-15 3.30759e-16
 13435.8000 3.43614e-15 3.46550e-16
 13439.7000 3.33599e-15 3.59053e-16
 13443.6000 3.26151e-15 3.65526e-16
 13447.5000 3.21672e-15 3.55653e-16
 13451.3000 3.28275e-15 3.51424e-16
 13455.2000 3.37499e-15 3.44968e-16
 13459.1000 3.34803e-15 3.49782e-16
 13462.9000 3.25755e-15 3.45683e-16
 13466.8000 3.21130e-15 3.48169e-16
 13470.7000 3.10764e-15 3.53612e-16
 13474.5000 3.06606e-15 3.82260e-16
 13478.4000 2.74629e-15 3.98073e-16
 13482.3000 2.93403e-15 4.19115e-16
 13486.2000 3.12654e-15 4.07339e-16
 13490.0000 3.15787e-15 3.74514e-16
 13493.9000 3.26037e-15 3.66203e-16
 13497.8000 3.19314e-15 3.79923e-16
 13501.6000 2.88540e-15 3.88381e-16
 13505.5000 2.84403e-15 4.02866e-16
 13509.4000 2.72556e-15 4.07494e-16
 13513.3000 2.90806e-15 4.17900e-16
 13517.1000 2.93482e-15 4.18598e-16
 13521.0000 3.04297e-15 4.24241e-16
 13524.9000 2.83222e-15 4.22823e-16
 13528.7000 2.79788e-15 4.30565e-16
 13532.6000 2.68813e-15 4.56930e-16
 13536.5000 2.69763e-15 4.85029e-16
 13540.4000 2.69591e-15 5.09575e-16
 13544.2000 2.61452e-15 5.94130e-16
 13548.1000 2.67109e-15 6.77578e-16
 13552.0000 3.20440e-15 7.09133e-16
 13555.8000 2.62461e-15 5.92645e-16
 13559.7000 2.97602e-15 5.49441e-16
 13563.6000 2.85490e-15 5.22132e-16
 13567.5000 2.95271e-15 5.29012e-16
 13571.3000 2.96623e-15 5.73336e-16
 13575.2000 2.67556e-15 5.83273e-16
 13579.1000 3.11513e-15 6.51079e-16
 13582.9000 3.08792e-15 6.79810e-16
 13586.8000 2.64628e-15 6.62592e-16
 13590.7000 2.32157e-15 6.74479e-16
 13594.6000 2.38050e-15 7.19390e-16
 13598.4000 3.50732e-15 8.06267e-16
 13602.3000 3.44769e-15 8.55751e-16
 13606.2000 3.21490e-15 9.17604e-16
 13610.0000 2.20673e-15 1.20522e-15
 13613.9000 3.48563e-15 2.14839e-15
 13617.8000 2.11465e-15 3.10341e-15
 13621.7000 2.88259e-15 3.22409e-15
 13625.5000 3.39071e-15 1.22154e-15
 13629.4000 3.29127e-15 8.48627e-16
 13633.3000 3.18048e-15 6.85863e-16
 13637.1000 3.54499e-15 7.47427e-16
 13641.0000 3.52206e-15 9.17432e-16
 13644.9000 2.63242e-15 1.26855e-15
 13648.7000 2.91069e-15 2.57046e-15
 13652.6000 3.35661e-15 1.13564e-15
 13656.5000 3.52893e-15 8.12391e-16
 13660.4000 4.04051e-15 7.35482e-16
 13664.2000 3.96550e-15 7.16127e-16
 13668.1000 3.77325e-15 7.80429e-16
 13672.0000 3.18301e-15 9.53692e-16
 13675.8000 3.11633e-15 1.46894e-15
 13679.7000 3.03929e-15 2.06181e-15
 13683.6000 3.10709e-15 1.54804e-15
 13687.5000 3.16280e-15 1.01250e-15
 13691.3000 3.55946e-15 8.92893e-16
 13695.2000 4.28416e-15 8.47394e-16
 13699.1000 4.09190e-15 8.77123e-16
 13702.9000 3.78902e-15 9.43100e-16
 13706.8000 2.78825e-15 1.00473e-15
 13710.7000 3.02947e-15 1.06097e-15
 13714.6000 3.21256e-15 1.10707e-15
 13718.4000 3.21036e-15 1.00837e-15
 13722.3000 3.83367e-15 9.52325e-16
 13726.2000 4.19077e-15 8.26165e-16
 13730.0000 4.46947e-15 7.57095e-16
 13733.9000 4.67286e-15 6.99412e-16
 13737.8000 4.45487e-15 6.71910e-16
 13741.7000 4.37832e-15 6.71957e-16
 13745.5000 4.30587e-15 6.55319e-16
 13749.4000 4.81191e-15 6.65843e-16
 13753.3000 5.03645e-15 6.48950e-16
 13757.1000 4.87793e-15 6.22207e-16
 13761.0000 5.03367e-15 6.69027e-16
 13764.9000 4.97107e-15 7.01733e-16
 13768.8000 4.52802e-15 6.50011e-16
 13772.6000 4.75946e-15 6.01664e-16
 13776.5000 4.80324e-15 5.60080e-16
 13780.4000 4.76079e-15 5.81547e-16
 13784.2000 4.29796e-15 5.99686e-16
 13788.1000 4.51128e-15 6.51531e-16
 13792.0000 4.52048e-15 6.52937e-16
 13795.9000 4.52285e-15 6.37930e-16
 13799.7000 4.54509e-15 6.86418e-16
 13803.6000 3.61329e-15 8.15322e-16
 13807.5000 3.00873e-15 9.13204e-16
 13811.3000 3.75522e-15 9.08760e-16
 13815.2000 4.06814e-15 8.64811e-16
 13819.1000 3.68280e-15 8.63170e-16
 13822.9000 3.34208e-15 1.05336e-15
 13826.8000 4.92299e-15 1.60093e-15
 13830.7000 4.67399e-15 1.60842e-15
 13834.6000 3.40287e-15 1.09081e-15
 13838.4000 3.61218e-15 8.79882e-16
 13842.3000 3.52387e-15 8.23683e-16
 13846.2000 3.74366e-15 8.67656e-16
 13850.0000 3.81836e-15 8.98767e-16
 13853.9000 4.29129e-15 9.09249e-16
 13857.8000 3.81488e-15 7.68397e-16
 13861.7000 4.00391e-15 6.64728e-16
 13865.5000 4.37584e-15 6.10164e-16
 13869.4000 4.62050e-15 6.04758e-16
 13873.3000 3.99944e-15 5.98408e-16
 13877.1000 3.62418e-15 6.38901e-16
 13881.0000 3.49246e-15 6.64138e-16
 13884.9000 4.55605e-15 6.56158e-16
 13888.8000 4.51480e-15 5.45965e-16
 13892.6000 4.30601e-15 4.98437e-16
 13896.5000 4.15341e-15 4.82558e-16
 13900.4000 4.54427e-15 5.16607e-16
 13904.2000 4.30182e-15 5.02726e-16
 13908.1000 4.30831e-15 4.96256e-16
 13912.0000 4.33348e-15 5.05252e-16
 13915.9000 4.31202e-15 5.36895e-16
 13919.7000 3.62703e-15 5.88051e-16
 13923.6000 2.82638e-15 6.31802e-16
 13927.5000 3.37261e-15 6.45493e-16
 13931.3000 4.01771e-15 5.75045e-16
 13935.2000 3.79580e-15 5.18751e-16
 13939.1000 3.62729e-15 5.35243e-16
 13943.0000 3.59146e-15 6.05405e-16
 13946.8000 3.61318e-15 7.77943e-16
 13950.7000 3.11850e-15 1.05124e-15
 13954.6000 2.68842e-15 1.37410e-15
 13958.4000 3.21659e-15 1.29359e-15
 13962.3000 2.77602e-15 8.86660e-16
 13966.2000 3.21820e-15 6.93791e-16
 13970.0000 4.04723e-15 6.10428e-16
 13973.9000 3.99073e-15 5.13341e-16
 13977.8000 3.90055e-15 4.61378e-16
 13981.7000 3.94193e-15 4.49571e-16
 13985.5000 3.72924e-15 4.50753e-16
 13989.4000 3.79462e-15 4.91979e-16
 13993.3000 3.66166e-15 5.85432e-16
 13997.1000 3.11638e-15 7.04906e-16
 14001.0000 2.60660e-15 9.22593e-16
 14004.9000 1.36416e-15 1.25282e-15
 14008.8000 3.26310e-15 1.26568e-15
 14012.6000 4.09181e-15 9.98201e-16
 14016.5000 4.39406e-15 7.02025e-16
 14020.4000 3.98858e-15 5.24582e-16
 14024.2000 4.03620e-15 4.85949e-16
 14028.1000 4.04492e-15 4.76630e-16
 14032.0000 3.72355e-15 4.83842e-16
 14035.9000 3.69141e-15 5.25245e-16
 14039.7000 3.46623e-15 5.89422e-16
 14043.6000 3.42890e-15 7.35290e-16
 14047.5000 3.50084e-15 7.94191e-16
 14051.3000 3.38416e-15 6.68638e-16
 14055.2000 3.72358e-15 5.58458e-16
 14059.1000 3.89441e-15 5.11900e-16
 14063.0000 3.70796e-15 5.16400e-16
 14066.8000 3.95252e-15 5.93966e-16
 14070.7000 3.95762e-15 6.67460e-16
 14074.6000 3.60439e-15 5.97734e-16
 14077.0000 3.62703e-15 5.17848e-16
 14081.8000 3.66019e-15 4.38245e-16
 14086.7000 3.63727e-15 4.71445e-16
 14091.5000 3.32632e-15 5.64757e-16
 14096.4000 3.39112e-15 6.07941e-16
 14101.2000 3.24462e-15 4.74875e-16
 14106.0000 3.67308e-15 4.41092e-16
 14110.9000 3.32808e-15 4.45489e-16
 14115.7000 3.60301e-15 4.45346e-16
 14120.6000 3.54369e-15 3.92633e-16
 14125.4000 3.64216e-15 3.81615e-16
 14130.3000 3.96392e-15 4.22928e-16
 14135.1000 3.94686e-15 4.62891e-16
 14140.0000 3.31571e-15 4.65909e-16
 14144.8000 2.93339e-15 5.11795e-16
 14149.7000 3.83772e-15 5.81072e-16
 14154.5000 3.52769e-15 4.47916e-16
 14159.3000 3.68645e-15 3.62891e-16
 14164.2000 3.78472e-15 3.56302e-16
 14169.0000 3.72212e-15 3.93958e-16
 14173.9000 3.50910e-15 3.88520e-16
 14178.7000 3.63429e-15 3.84705e-16
 14183.6000 3.38565e-15 4.00244e-16
 14188.4000 3.41525e-15 5.01456e-16
 14193.3000 2.60473e-15 4.60235e-16
 14198.1000 2.87774e-15 4.15472e-16
 14203.0000 3.20568e-15 3.95743e-16
 14207.8000 3.51784e-15 4.06928e-16
 14212.6000 3.61811e-15 3.70230e-16
 14217.5000 3.19410e-15 3.15277e-16
 14222.3000 3.24322e-15 3.23421e-16
 14227.2000 3.45437e-15 3.81960e-16
 14232.0000 3.30412e-15 5.97826e-16
 14236.9000 3.01139e-15 2.69368e-16
 14241.7000 2.99954e-15 3.46069e-16
 14246.6000 3.23544e-15 3.61852e-16
 14251.4000 3.08165e-15 3.39817e-16
 14256.2000 3.03791e-15 3.23108e-16
 14261.1000 3.11910e-15 3.26958e-16
 14265.9000 3.06624e-15 3.34259e-16
 14270.8000 3.10976e-15 3.34523e-16
 14275.6000 2.92587e-15 3.30975e-16
 14280.5000 2.71423e-15 3.42411e-16
 14285.3000 2.90431e-15 3.73298e-16
 14290.2000 2.78836e-15 3.17997e-16
 14295.0000 2.83494e-15 2.90462e-16
 14299.9000 2.84942e-15 2.87062e-16
 14304.7000 2.91135e-15 3.17797e-16
 14309.5000 3.00429e-15 3.37201e-16
 14314.4000 2.80278e-15 3.46542e-16
 14319.2000 2.88969e-15 3.84149e-16
 14324.1000 2.99313e-15 3.99757e-16
 14328.9000 2.93980e-15 3.32905e-16
 14333.8000 2.89035e-15 3.03440e-16
 14338.6000 2.77989e-15 3.04945e-16
 14343.5000 2.71520e-15 3.33331e-16
 14348.3000 2.84002e-15 3.19808e-16
 14353.1000 3.00959e-15 3.05470e-16
 14358.0000 2.89258e-15 3.05275e-16
 14362.8000 2.85682e-15 3.40194e-16
 14367.7000 2.77179e-15 3.36305e-16
 14372.5000 2.81296e-15 3.42563e-16
 14377.4000 2.77046e-15 3.39289e-16
 14382.2000 2.68099e-15 4.04962e-16
 14387.1000 2.80126e-15 3.10244e-16
 14391.9000 2.87456e-15 2.88037e-16
 14396.8000 2.97291e-15 3.08634e-16
 14401.6000 3.05583e-15 3.33538e-16
 14406.4000 2.94439e-15 3.13080e-16
 14411.3000 2.82032e-15 2.98128e-16
 14416.1000 3.01545e-15 3.07735e-16
 14421.0000 2.88942e-15 3.29601e-16
 14425.8000 2.91811e-15 3.13544e-16
 14430.7000 3.07085e-15 2.96795e-16
 14435.5000 3.19040e-15 2.97484e-16
 14440.4000 3.31409e-15 3.25316e-16
 14445.2000 3.29827e-15 3.12075e-16
 14450.1000 3.40625e-15 3.27611e-16
 14454.9000 3.18683e-15 3.57224e-16
 14459.7000 3.18885e-15 3.79360e-16
 14464.6000 3.39173e-15 3.36558e-16
 14469.4000 3.42229e-15 3.00930e-16
 14474.3000 3.55844e-15 3.05798e-16
 14479.1000 3.64181e-15 3.22657e-16
 14484.0000 3.67962e-15 2.93719e-16
 14488.8000 3.66662e-15 2.87787e-16
 14493.7000 3.85508e-15 3.18462e-16
 14498.5000 3.73846e-15 3.69001e-16
 14503.3000 3.56916e-15 3.77671e-16
 14508.2000 3.55445e-15 3.72606e-16
 14513.0000 3.51691e-15 3.64272e-16
 14517.9000 3.87707e-15 3.73746e-16
 14522.7000 4.02756e-15 3.31600e-16
 14527.6000 3.99421e-15 3.05588e-16
 14532.4000 4.14814e-15 3.15406e-16
 14537.3000 4.11412e-15 3.29887e-16
 14542.1000 4.17762e-15 3.05078e-16
 14547.0000 4.07026e-15 3.01435e-16
 14551.8000 4.03150e-15 3.20935e-16
 14556.6000 3.98048e-15 3.34114e-16
 14561.5000 4.14303e-15 3.09051e-16
 14566.3000 4.14992e-15 2.99398e-16
 14571.2000 4.54695e-15 3.25487e-16
 14576.0000 4.22694e-15 3.26129e-16
 14580.9000 4.23051e-15 3.03625e-16
 14585.7000 4.35870e-15 3.04287e-16
 14590.6000 4.21744e-15 3.03702e-16
 14595.4000 4.31197e-15 3.29368e-16
 14600.2000 4.58560e-15 3.31083e-16
 14605.1000 4.36718e-15 3.19595e-16
 14609.9000 4.36603e-15 3.33601e-16
 14614.8000 4.32156e-15 3.31969e-16
 14619.6000 4.31388e-15 3.10640e-16
 14624.5000 4.36550e-15 3.09923e-16
 14629.3000 4.23297e-15 3.28220e-16
 14634.2000 4.18419e-15 3.37192e-16
 14639.0000 4.28728e-15 3.04528e-16
 14643.9000 4.42980e-15 3.01321e-16
 14648.7000 4.42904e-15 3.25470e-16
 14653.5000 4.32458e-15 3.45462e-16
 14658.4000 4.06420e-15 3.22302e-16
 14663.2000 3.99188e-15 3.18229e-16
 14668.1000 4.12380e-15 3.40192e-16
 14672.9000 3.92486e-15 3.31724e-16
 14677.8000 4.11736e-15 3.06805e-16
 14682.6000 4.34007e-15 3.01702e-16
 14687.5000 3.98927e-15 3.04194e-16
 14692.3000 3.87360e-15 3.20514e-16
 14697.1000 3.87512e-15 3.15339e-16
 14702.0000 3.54564e-15 3.16076e-16
 14706.8000 3.61801e-15 3.38144e-16
 14711.7000 3.72046e-15 3.43867e-16
 14716.5000 3.64950e-15 3.10284e-16
 14721.4000 3.78473e-15 3.06872e-16
 14726.2000 3.80640e-15 3.19747e-16
 14731.1000 3.74144e-15 3.16871e-16
 14735.9000 3.89242e-15 2.95914e-16
 14740.8000 3.88054e-15 2.80904e-16
 14745.6000 4.02801e-15 2.92119e-16
 14750.4000 3.98854e-15 2.97182e-16
 14755.3000 3.85159e-15 2.79550e-16
 14760.1000 3.76774e-15 2.80440e-16
 14765.0000 3.81594e-15 3.00257e-16
 14769.8000 3.86788e-15 3.10758e-16
 14774.7000 3.66375e-15 2.91068e-16
 14779.5000 3.66444e-15 2.86608e-16
 14784.4000 3.82013e-15 3.00775e-16
 14789.2000 3.86416e-15 2.95689e-16
 14794.1000 3.77879e-15 2.96634e-16
 14798.9000 3.91265e-15 3.10251e-16
 14803.7000 3.76429e-15 3.07602e-16
 14808.6000 3.81252e-15 3.04466e-16
 14813.4000 3.87490e-15 2.89198e-16
 14818.3000 3.93076e-15 2.86345e-16
 14823.1000 3.88379e-15 2.97436e-16
 14828.0000 3.90817e-15 2.92450e-16
 14832.8000 4.09169e-15 2.77766e-16
 14837.7000 4.30025e-15 2.85874e-16
 14842.5000 4.19337e-15 3.02159e-16
 14847.3000 4.06403e-15 2.97989e-16
 14852.2000 4.23502e-15 2.87790e-16
 14857.0000 4.16178e-15 2.85915e-16
 14861.9000 4.25389e-15 3.08514e-16
 14866.7000 4.31888e-15 3.10990e-16
 14871.6000 4.25442e-15 2.95002e-16
 14876.4000 4.31743e-15 2.94975e-16
 14881.3000 4.39748e-15 3.12346e-16
 14886.1000 4.59533e-15 3.13936e-16
 14891.0000 4.70582e-15 3.00665e-16
 14895.8000 4.69373e-15 2.97870e-16
 14900.6000 4.72684e-15 3.08853e-16
 14905.5000 4.81488e-15 3.07571e-16
 14910.3000 4.92719e-15 2.99975e-16
 14915.2000 4.89855e-15 3.02690e-16
 14920.0000 4.88794e-15 3.20890e-16
 14924.9000 5.06911e-15 3.20846e-16
 14929.7000 5.22124e-15 3.09102e-16
 14934.6000 5.17810e-15 3.08243e-16
 14939.4000 5.27897e-15 3.27222e-16
 14944.3000 5.30417e-15 3.23729e-16
 14949.1000 5.37821e-15 3.14905e-16
 14953.9000 5.45163e-15 3.19316e-16
 14958.8000 5.61945e-15 3.41619e-16
 14963.6000 5.75132e-15 3.39251e-16
 14968.5000 5.82240e-15 3.27330e-16
 14973.3000 6.05264e-15 3.32984e-16
 14978.2000 6.16589e-15 3.55628e-16
 14983.0000 6.13575e-15 3.48226e-16
 14987.9000 6.30936e-15 3.38196e-16
 14992.7000 6.25138e-15 3.39640e-16
 14997.5000 6.45581e-15 3.66256e-16
 15002.4000 6.58616e-15 3.57563e-16
 15007.2000 6.68984e-15 3.48047e-16
 15012.1000 6.74281e-15 3.54579e-16
 15016.9000 7.03927e-15 3.81834e-16
 15021.8000 6.94747e-15 3.70429e-16
 15026.6000 7.12013e-15 3.63953e-16
 15031.5000 7.08124e-15 3.69263e-16
 15036.3000 7.21845e-15 3.97398e-16
 15041.2000 7.25370e-15 3.89574e-16
 15046.0000 7.52161e-15 3.88651e-16
 15050.8000 7.53918e-15 3.94739e-16
 15055.7000 8.09592e-15 4.35504e-16
 15060.5000 8.01313e-15 4.15765e-16
 15065.4000 7.95905e-15 3.91022e-16
 15070.2000 8.20568e-15 4.00111e-16
 15075.1000 8.24142e-15 4.23021e-16
 15079.9000 8.42102e-15 4.15926e-16
 15084.8000 8.46587e-15 4.07491e-16
 15089.6000 8.68855e-15 4.20980e-16
 15094.4000 8.95385e-15 4.51549e-16
 15099.3000 8.99884e-15 4.32326e-16
 15104.1000 9.24995e-15 4.22906e-16
 15109.0000 9.32289e-15 4.32318e-16
 15113.8000 9.46196e-15 4.59856e-16
 15118.7000 9.63889e-15 4.48067e-16
 15123.5000 9.78752e-15 4.40051e-16
 15128.4000 9.97221e-15 4.53253e-16
 15133.2000 1.00497e-14 4.84403e-16
 15138.1000 1.01574e-14 4.65399e-16
 15142.9000 1.04300e-14 4.62368e-16
 15147.7000 1.04639e-14 6.14043e-16
 15152.6000 1.07554e-14 6.25185e-16
 15157.4000 1.06750e-14 6.22759e-16
 15162.3000 1.10605e-14 6.37283e-16
 15167.1000 1.11385e-14 6.42022e-16
 15172.0000 1.14590e-14 6.53185e-16
 15176.8000 1.15493e-14 6.60400e-16
 15181.7000 1.19559e-14 7.11969e-16
 15186.5000 1.19167e-14 6.76540e-16
 15191.3000 1.24118e-14 8.20009e-16
 15196.2000 1.32372e-14 1.27118e-15
 15201.0000 1.23676e-14 6.33684e-16
 15205.9000 1.26185e-14 6.89277e-16
 15210.7000 1.28938e-14 7.00559e-16
 15215.6000 1.28760e-14 7.00201e-16
 15220.4000 1.31155e-14 7.10441e-16
 15225.3000 1.32819e-14 7.13893e-16
 15230.1000 1.36080e-14 7.29673e-16
 15235.0000 1.36579e-14 7.32961e-16
 15239.8000 1.38385e-14 7.38481e-16
 15244.6000 1.39306e-14 7.43509e-16
 15249.5000 1.41069e-14 7.50501e-16
 15254.3000 1.45134e-14 7.57348e-16
 15259.2000 1.46073e-14 7.62847e-16
 15264.0000 1.47171e-14 7.66240e-16
 15268.9000 1.50794e-14 7.80580e-16
 15273.7000 1.50966e-14 7.77440e-16
 15278.6000 1.54080e-14 7.90090e-16
 15283.4000 1.57271e-14 7.99656e-16
 15288.3000 1.60761e-14 8.14917e-16
 15293.1000 1.63231e-14 8.22145e-16
 15297.9000 1.64835e-14 8.26936e-16
 15302.8000 1.66139e-14 8.32458e-16
 15307.6000 1.70097e-14 8.49215e-16
 15312.5000 1.70996e-14 8.49262e-16
 15317.3000 1.73019e-14 8.57065e-16
 15322.2000 1.73577e-14 8.56181e-16
 15327.0000 1.76979e-14 8.69078e-16
 15331.9000 1.78839e-14 8.75416e-16
 15336.7000 1.78263e-14 8.75741e-16
 15341.5000 1.81272e-14 8.81774e-16
 15346.4000 1.84870e-14 8.92844e-16
 15351.2000 1.86623e-14 8.98657e-16
 15356.1000 1.89548e-14 9.13037e-16
 15360.9000 1.91686e-14 9.17425e-16
 15365.8000 1.93994e-14 9.26617e-16
 15370.6000 1.94331e-14 9.24633e-16
 15375.5000 1.96534e-14 9.31818e-16
 15380.3000 1.98372e-14 9.36075e-16
 15385.2000 2.00536e-14 9.50244e-16
 15390.0000 2.01107e-14 9.46064e-16
 15394.8000 2.01888e-14 9.52687e-16
 15399.7000 2.04414e-14 9.56481e-16
 15404.5000 2.07568e-14 9.70353e-16
 15409.4000 2.08938e-14 9.74037e-16
 15414.2000 2.09329e-14 9.74635e-16
 15419.1000 2.10449e-14 9.73511e-16
 15423.9000 2.11426e-14 9.80460e-16
 15428.8000 2.13799e-14 9.88435e-16
 15433.6000 2.15157e-14 9.95031e-16
 15438.4000 2.15123e-14 9.89642e-16
 15443.3000 2.15893e-14 9.94117e-16
 15448.1000 2.18345e-14 1.00153e-15
 15453.0000 2.21160e-14 1.01632e-15
 15457.8000 2.22821e-14 1.01530e-15
 15462.7000 2.21038e-14 1.01202e-15
 15467.5000 2.21202e-14 1.00372e-15
 15472.4000 2.23240e-14 1.01884e-15
 15477.2000 2.25215e-14 1.02201e-15
 15482.1000 2.24575e-14 1.01913e-15
 15486.9000 2.24959e-14 1.01553e-15
 15491.7000 2.24157e-14 1.01668e-15
 15496.6000 2.24039e-14 1.01029e-15
 15501.4000 2.26272e-14 1.02375e-15
 15506.3000 2.26520e-14 1.01822e-15
 15511.1000 2.25508e-14 1.02147e-15
 15516.0000 2.27031e-14 1.01930e-15
 15520.8000 2.27240e-14 1.02947e-15
 15525.7000 2.28447e-14 1.02268e-15
 15530.5000 2.26922e-14 1.02481e-15
 15535.4000 2.27320e-14 1.02243e-15
 15540.2000 2.24532e-14 1.01419e-15
 15545.0000 2.23998e-14 1.00386e-15
 15549.9000 2.22712e-14 1.00373e-15
 15554.7000 2.22588e-14 9.98829e-16
 15559.6000 2.21791e-14 1.00193e-15
 15564.4000 2.22557e-14 9.94305e-16
 15569.3000 2.20276e-14 9.96680e-16
 15574.1000 2.20979e-14 9.92286e-16
 15579.0000 2.19723e-14 9.92528e-16
 15583.8000 2.18858e-14 9.76981e-16
 15588.6000 2.15163e-14 9.72015e-16
 15593.5000 2.17777e-14 9.77947e-16
 15598.3000 2.16326e-14 9.72475e-16
 15603.2000 2.13463e-14 9.55472e-16
 15608.0000 2.11728e-14 9.60462e-16
 15612.9000 2.12397e-14 9.56255e-16
 15617.7000 2.07121e-14 9.38831e-16
 15622.6000 2.07097e-14 9.34463e-16
 15627.4000 2.05182e-14 9.30702e-16
 15632.3000 2.05384e-14 9.25586e-16
 15637.1000 2.02903e-14 9.24303e-16
 15641.9000 2.02353e-14 9.16731e-16
 15646.8000 2.00321e-14 9.12729e-16
 15651.6000 2.00542e-14 9.07518e-16
 15656.5000 1.95145e-14 8.93704e-16
 15661.3000 1.95088e-14 8.84204e-16
 15666.2000 1.93444e-14 8.81264e-16
 15671.0000 1.93674e-14 8.79632e-16
 15675.9000 1.92614e-14 8.82388e-16
 15680.7000 1.92869e-14 8.79100e-16
 15685.5000 1.86922e-14 8.61111e-16
 15690.4000 1.84817e-14 8.47290e-16
 15695.2000 1.81059e-14 8.37672e-16
 15700.1000 1.81741e-14 8.38570e-16
 15704.9000 1.75454e-14 8.22979e-16
 15709.8000 1.77600e-14 8.29871e-16
 15714.6000 1.76097e-14 8.28370e-16
 15719.5000 1.74216e-14 8.14428e-16
 15724.3000 1.74577e-14 8.33568e-16
 15729.2000 1.73557e-14 8.14092e-16
 15734.0000 1.68235e-14 7.96714e-16
 15738.8000 1.69799e-14 7.96177e-16
 15743.7000 1.66471e-14 7.84896e-16
 15748.5000 1.68565e-14 7.84932e-16
 15753.4000 1.62258e-14 7.65683e-16
 15758.2000 1.62276e-14 7.60995e-16
 15763.1000 1.57359e-14 7.46171e-16
 15767.9000 1.58670e-14 7.49439e-16
 15772.8000 1.55999e-14 7.47959e-16
 15777.6000 1.65518e-14 8.56953e-16
 15782.5000 1.52524e-14 7.31066e-16
 15787.3000 1.53295e-14 7.33970e-16
 15792.1000 1.49589e-14 7.20393e-16
 15797.0000 1.50081e-14 7.16137e-16
 15801.8000 1.46166e-14 7.07020e-16
 15806.7000 1.45997e-14 7.01957e-16
 15811.5000 1.41562e-14 6.86874e-16
 15816.4000 1.42604e-14 6.86975e-16
 15821.2000 1.39032e-14 6.78839e-16
 15826.1000 1.39629e-14 6.79026e-16
 15830.9000 1.34957e-14 6.66151e-16
 15835.7000 1.34439e-14 6.66750e-16
 15840.6000 1.32405e-14 6.53539e-16
 15845.4000 1.33554e-14 6.53109e-16
 15850.3000 1.28761e-14 6.34391e-16
 15855.1000 1.31028e-14 6.39901e-16
 15860.0000 1.28166e-14 6.28013e-16
 15864.8000 1.29074e-14 6.32005e-16
 15869.7000 1.23625e-14 6.11762e-16
 15874.5000 1.25237e-14 6.16466e-16
 15879.4000 1.20925e-14 6.00921e-16
 15884.2000 1.22678e-14 6.07341e-16
 15889.0000 1.19078e-14 5.91941e-16
 15893.9000 1.19685e-14 5.94908e-16
 15898.7000 1.14504e-14 5.76175e-16
 15903.6000 1.17532e-14 5.85837e-16
 15908.4000 1.14761e-14 5.75212e-16
 15913.3000 1.16731e-14 5.82082e-16
 15918.1000 1.12347e-14 5.65069e-16
 15923.0000 1.13449e-14 5.69597e-16
 15927.8000 1.10117e-14 5.57460e-16
 15932.6000 1.11515e-14 5.60868e-16
 15937.5000 1.08874e-14 5.50964e-16
 15942.3000 1.09855e-14 5.53742e-16
 15947.2000 1.08444e-14 5.50034e-16
 15952.0000 1.07776e-14 5.45220e-16
 15956.9000 1.06171e-14 5.39980e-16
 15961.7000 1.07893e-14 5.45319e-16
 15966.6000 1.04794e-14 5.36562e-16
 15971.4000 1.06602e-14 5.40460e-16
 15976.3000 1.05035e-14 5.35610e-16
 15981.1000 1.06869e-14 5.41013e-16
 15985.9000 1.04228e-14 5.34085e-16
 15990.8000 1.05592e-14 5.37110e-16
 15995.6000 1.03445e-14 5.33015e-16
 16000.5000 1.04775e-14 5.38154e-16
 16005.3000 1.03126e-14 5.34151e-16
 16010.2000 1.04530e-14 5.38645e-16
 16015.0000 1.02355e-14 5.32241e-16
 16019.9000 1.04118e-14 5.39791e-16
 16024.7000 1.01993e-14 5.37347e-16
 16029.6000 1.04678e-14 5.47548e-16
 16034.4000 1.03796e-14 5.46604e-16
 16039.2000 1.05760e-14 5.44064e-16
 16044.1000 1.02850e-14 5.29718e-16
 16048.9000 1.08509e-14 5.58409e-16
 16053.8000 1.10502e-14 5.88774e-16
 16058.6000 1.08298e-14 5.44807e-16
 16063.5000 1.06264e-14 5.42080e-16
 16068.3000 1.08225e-14 5.48208e-16
 16073.2000 1.05913e-14 5.42559e-16
 16078.0000 1.08429e-14 5.51357e-16
 16082.8000 1.08477e-14 5.53581e-16
 16087.7000 1.09233e-14 5.52871e-16
 16092.5000 1.06882e-14 5.44637e-16
 16097.4000 1.08689e-14 5.46093e-16
 16102.2000 1.06523e-14 5.36393e-16
 16107.1000 1.08249e-14 5.42893e-16
 16111.9000 1.07446e-14 5.39763e-16
 16116.8000 1.08671e-14 5.46183e-16
 16121.6000 1.07647e-14 5.44258e-16
 16126.5000 1.11168e-14 5.58194e-16
 16131.3000 1.08183e-14 5.47605e-16
 16136.1000 1.11501e-14 5.56051e-16
 16141.0000 1.11537e-14 5.51979e-16
 16145.8000 1.14084e-14 5.59219e-16
 16150.7000 1.11742e-14 5.52227e-16
 16155.5000 1.14177e-14 5.60135e-16
 16160.4000 1.13248e-14 5.55769e-16
 16165.2000 1.15274e-14 5.62196e-16
 16170.1000 1.14258e-14 5.59126e-16
 16174.9000 1.15954e-14 5.65291e-16
 16179.7000 1.13770e-14 5.57366e-16
 16184.6000 1.15614e-14 5.62732e-16
 16189.4000 1.14525e-14 5.60407e-16
 16194.3000 1.16285e-14 5.65738e-16
 16199.1000 1.14561e-14 5.57007e-16
 16204.0000 1.17631e-14 5.68603e-16
 16208.8000 1.17021e-14 5.68536e-16
 16213.7000 1.18934e-14 5.72000e-16
 16218.5000 1.16434e-14 5.63688e-16
 16223.4000 1.17125e-14 5.63592e-16
 16228.2000 1.12962e-14 5.78932e-16
 16233.0000 1.10127e-14 6.05063e-16
 16237.9000 1.14515e-14 5.55894e-16
 16242.7000 1.18599e-14 5.71181e-16
 16247.6000 1.18227e-14 5.70923e-16
 16252.4000 1.19246e-14 5.73406e-16
 16257.3000 1.18394e-14 5.69573e-16
 16262.1000 1.19283e-14 5.70763e-16
 16267.0000 1.18085e-14 5.66790e-16
 16271.8000 1.20692e-14 5.77258e-16
 16276.7000 1.19956e-14 5.75519e-16
 16281.5000 1.20939e-14 5.77588e-16
 16286.3000 1.20412e-14 5.76511e-16
 16291.2000 1.22158e-14 5.82343e-16
 16296.0000 1.20812e-14 5.75589e-16
 16300.9000 1.21882e-14 5.78699e-16
 16305.7000 1.20793e-14 5.76687e-16
 16310.6000 1.23924e-14 5.86834e-16
 16315.4000 1.22976e-14 5.85889e-16
 16320.3000 1.24190e-14 5.90114e-16
 16325.1000 1.23522e-14 5.86471e-16
 16329.9000 1.25143e-14 5.92833e-16
 16334.8000 1.24146e-14 5.88884e-16
 16339.6000 1.25869e-14 5.94866e-16
 16344.5000 1.26010e-14 5.95508e-16
 16349.3000 1.26023e-14 5.94177e-16
 16354.2000 1.26033e-14 6.01023e-16
 16359.0000 1.28695e-14 6.11205e-16
 16363.9000 1.26110e-14 5.93225e-16
 16368.7000 1.26262e-14 5.94653e-16
 16373.6000 1.25140e-14 5.89976e-16
 16378.4000 1.26664e-14 5.94989e-16
 16383.2000 1.26314e-14 5.93651e-16
 16388.1000 1.26687e-14 5.95592e-16
 16392.9000 1.24965e-14 5.89602e-16
 16397.8000 1.25770e-14 5.91621e-16
 16402.6000 1.23888e-14 5.84728e-16
 16407.5000 1.25133e-14 5.89150e-16
 16412.3000 1.25724e-14 5.90866e-16
 16417.2000 1.26849e-14 5.95138e-16
 16422.0000 1.24594e-14 5.87508e-16
 16426.8000 1.23932e-14 5.84775e-16
 16431.7000 1.22678e-14 5.81015e-16
 16436.5000 1.24711e-14 5.88607e-16
 16441.4000 1.25025e-14 5.89460e-16
 16446.2000 1.26987e-14 5.99259e-16
 16451.1000 1.26432e-14 5.95304e-16
 16455.9000 1.26152e-14 5.93204e-16
 16460.8000 1.24140e-14 5.84771e-16
 16465.6000 1.24467e-14 5.85118e-16
 16470.5000 1.22884e-14 5.77529e-16
 16475.3000 1.23983e-14 5.83720e-16
 16480.1000 1.21814e-14 5.76003e-16
 16485.0000 1.21948e-14 5.77728e-16
 16489.8000 1.22891e-14 5.79010e-16
 16494.7000 1.24046e-14 5.85555e-16
 16499.5000 1.21584e-14 5.74920e-16
 16504.4000 1.22605e-14 5.79708e-16
 16509.2000 1.22794e-14 5.80559e-16
 16514.1000 1.23225e-14 5.83355e-16
 16518.9000 1.21704e-14 5.75884e-16
 16523.7000 1.22163e-14 5.75213e-16
 16528.6000 1.20874e-14 5.71676e-16
 16533.4000 1.21037e-14 5.73991e-16
 16538.3000 1.20088e-14 5.68281e-16
 16543.1000 1.21649e-14 5.73865e-16
 16548.0000 1.21868e-14 5.75024e-16
 16552.8000 1.21577e-14 5.75919e-16
 16557.7000 1.19150e-14 5.65222e-16
 16562.5000 1.19349e-14 5.65353e-16
 16567.4000 1.18796e-14 5.62447e-16
 16572.2000 1.20664e-14 5.69869e-16
 16577.0000 1.21699e-14 5.73966e-16
 16581.9000 1.21466e-14 5.73058e-16
 16586.7000 1.20006e-14 5.66234e-16
 16591.6000 1.21328e-14 5.71368e-16
 16596.4000 1.20880e-14 5.69944e-16
 16601.3000 1.21580e-14 5.73376e-16
 16606.1000 1.21195e-14 5.70340e-16
 16611.0000 1.22554e-14 5.78462e-16
 16615.8000 1.22743e-14 5.77223e-16
 16620.7000 1.23962e-14 5.80602e-16
 16625.5000 1.23549e-14 5.78100e-16
 16630.3000 1.24129e-14 5.81851e-16
 16635.2000 1.24321e-14 5.80688e-16
 16640.0000 1.25914e-14 5.89804e-16
 16644.9000 1.25588e-14 5.88030e-16
 16649.7000 1.28414e-14 6.03929e-16
 16654.6000 1.26663e-14 5.97551e-16
 16659.4000 1.27007e-14 5.99527e-16
 16664.3000 1.28479e-14 6.02757e-16
 16669.1000 1.30931e-14 6.09513e-16
 16673.9000 1.31496e-14 6.07090e-16
 16678.8000 1.32105e-14 6.08908e-16
 16683.6000 1.32267e-14 6.11371e-16
 16688.5000 1.35228e-14 6.27597e-16
 16693.3000 1.35342e-14 6.27095e-16
 16698.2000 1.39081e-14 6.39887e-16
 16703.0000 1.40205e-14 6.39613e-16
 16707.9000 1.41340e-14 6.41254e-16
 16712.7000 1.46716e-14 6.63317e-16
 16717.6000 1.48551e-14 6.68825e-16
 16722.4000 1.47946e-14 6.61265e-16
 16727.2000 1.50863e-14 6.73244e-16
 16732.1000 1.51735e-14 6.75024e-16
 16736.9000 1.53167e-14 6.80824e-16
 16741.8000 1.53686e-14 6.81294e-16
 16746.6000 1.56664e-14 6.93388e-16
 16751.5000 1.57786e-14 6.95900e-16
 16756.3000 1.60653e-14 7.07286e-16
 16761.2000 1.60979e-14 7.04823e-16
 16766.0000 1.64099e-14 7.17759e-16
 16770.8000 1.66649e-14 7.27356e-16
 16775.7000 1.69534e-14 7.37640e-16
 16780.5000 1.68673e-14 7.31206e-16
 16785.4000 1.70678e-14 7.39557e-16
 16790.2000 1.72488e-14 7.44320e-16
 16795.1000 1.73272e-14 7.47985e-16
 16799.9000 1.72759e-14 7.42904e-16
 16804.8000 1.75795e-14 7.56289e-16
 16809.6000 1.77764e-14 7.63351e-16
 16814.5000 1.80867e-14 7.75056e-16
 16819.3000 1.79142e-14 7.65756e-16
 16824.1000 1.82236e-14 7.77525e-16
 16829.0000 1.85790e-14 7.91555e-16
 16833.8000 1.86491e-14 7.94653e-16
 16838.7000 1.85676e-14 7.88912e-16
 16843.5000 1.87659e-14 7.99342e-16
 16848.4000 1.90376e-14 8.09962e-16
 16853.2000 1.92950e-14 8.19158e-16
 16858.1000 1.89734e-14 8.01462e-16
 16862.9000 1.89788e-14 8.01186e-16
 16867.8000 1.89594e-14 8.02099e-16
 16872.6000 1.91554e-14 8.11825e-16
 16877.4000 1.92375e-14 8.12330e-16
 16882.3000 1.94092e-14 8.19715e-16
 16887.1000 1.92599e-14 8.11768e-16
 16892.0000 1.90729e-14 8.04927e-16
 16896.8000 1.93252e-14 8.18008e-16
 16901.7000 1.93719e-14 8.22155e-16
 16906.5000 1.89743e-14 8.04884e-16
 16911.4000 1.93249e-14 8.19566e-16
 16916.2000 1.96729e-14 8.30681e-16
 16921.0000 1.97223e-14 8.33190e-16
 16925.9000 1.95080e-14 8.21810e-16
 16930.7000 1.94093e-14 8.18167e-16
 16935.6000 1.93012e-14 8.12520e-16
 16940.4000 1.93581e-14 8.17318e-16
 16945.3000 1.92404e-14 8.12433e-16
 16950.1000 1.90706e-14 8.05337e-16
 16955.0000 1.89212e-14 7.98458e-16
 16959.8000 1.89699e-14 8.05688e-16
 16964.7000 1.89191e-14 8.06876e-16
 16969.5000 1.89652e-14 8.09089e-16
 16974.3000 1.87803e-14 7.97164e-16
 16979.2000 1.86537e-14 7.94268e-16
 16984.0000 1.85083e-14 7.85867e-16
 16988.9000 1.85228e-14 7.89340e-16
 16993.7000 1.80920e-14 7.74311e-16
 16998.6000 1.80627e-14 7.76049e-16
 17003.4000 1.77753e-14 7.65673e-16
 17008.3000 1.76306e-14 7.65374e-16
 17013.1000 1.75652e-14 7.60911e-16
 17017.9000 1.76033e-14 7.61412e-16
 17022.8000 1.74697e-14 7.52800e-16
 17027.6000 1.74526e-14 7.56185e-16
 17032.5000 1.73691e-14 7.51074e-16
 17037.3000 1.72333e-14 7.47933e-16
 17042.2000 1.69291e-14 7.34723e-16
 17047.0000 1.69244e-14 7.38592e-16
 17051.9000 1.69154e-14 7.37036e-16
 17056.7000 1.68419e-14 7.37986e-16
 17061.6000 1.66459e-14 7.28685e-16
 17066.4000 1.64524e-14 7.23480e-16
 17071.2000 1.62988e-14 7.16716e-16
 17076.1000 1.60943e-14 7.11583e-16
 17080.9000 1.58078e-14 7.01532e-16
 17085.8000 1.59022e-14 7.06730e-16
 17090.6000 1.58747e-14 7.00430e-16
 17095.5000 1.58892e-14 7.05341e-16
 17100.3000 1.57896e-14 6.99396e-16
 17105.2000 1.56782e-14 6.95235e-16
 17110.0000 1.55389e-14 6.87804e-16
 17114.9000 1.57015e-14 6.99033e-16
 17119.7000 1.55595e-14 6.93353e-16
 17124.5000 1.53449e-14 6.83519e-16
 17129.4000 1.53440e-14 6.83555e-16
 17134.2000 1.53953e-14 6.87998e-16
 17139.1000 1.53480e-14 6.84723e-16
 17143.9000 1.53737e-14 6.87828e-16
 17148.8000 1.53898e-14 6.86878e-16
 17153.6000 1.54819e-14 6.91651e-16
 17158.5000 1.51978e-14 6.77798e-16
 17163.3000 1.54637e-14 6.89588e-16
 17168.1000 1.56312e-14 6.93947e-16
 17173.0000 1.55759e-14 6.88330e-16
 17177.8000 1.54930e-14 6.83258e-16
 17182.7000 1.55954e-14 6.90729e-16
 17187.5000 1.57586e-14 6.97010e-16
 17192.4000 1.59547e-14 7.06363e-16
 17197.2000 1.60167e-14 7.07389e-16
 17202.1000 1.60033e-14 7.09917e-16
 17206.9000 1.59343e-14 7.08364e-16
 17211.8000 1.61224e-14 7.18265e-16
 17216.6000 1.60925e-14 7.14970e-16
 17221.4000 1.62743e-14 7.19638e-16
 17226.3000 1.64474e-14 7.23965e-16
 17231.1000 1.65239e-14 7.27781e-16
 17236.0000 1.66484e-14 7.33619e-16
 17240.8000 1.67974e-14 7.43185e-16
 17245.7000 1.67271e-14 7.35215e-16
 17250.5000 1.68503e-14 7.37851e-16
 17255.4000 1.70573e-14 7.43668e-16
 17260.2000 1.72822e-14 7.52582e-16
 17265.0000 1.74354e-14 7.53634e-16
 17269.9000 1.76581e-14 7.63775e-16
 17274.7000 1.77456e-14 7.65380e-16
 17279.6000 1.79200e-14 7.73934e-16
 17284.4000 1.78801e-14 7.70234e-16
 17289.3000 1.81522e-14 7.82053e-16
 17294.1000 1.82912e-14 7.85608e-16
 17299.0000 1.84978e-14 7.92728e-16
 17303.8000 1.86666e-14 7.96752e-16
 17308.7000 1.86867e-14 7.99198e-16
 17313.5000 1.86087e-14 7.97594e-16
 17318.3000 1.89537e-14 8.16179e-16
 17323.2000 1.89691e-14 8.16152e-16
 17328.0000 1.91815e-14 8.22204e-16
 17332.9000 1.94108e-14 8.25751e-16
 17337.7000 1.95811e-14 8.29846e-16
 17342.6000 1.97780e-14 8.38719e-16
 17347.4000 1.96436e-14 8.33557e-16
 17352.3000 1.95797e-14 8.31627e-16
 17357.1000 1.97636e-14 8.43637e-16
 17362.0000 1.99131e-14 8.45859e-16
 17366.8000 2.03534e-14 8.64907e-16
 17371.6000 2.04408e-14 8.66375e-16
 17376.5000 2.05120e-14 8.67666e-16
 17381.3000 2.04614e-14 8.61599e-16
 17386.2000 2.08426e-14 8.78467e-16
 17391.0000 2.07156e-14 8.70433e-16
 17395.9000 2.08107e-14 8.76835e-16
 17400.7000 2.09375e-14 8.83702e-16
 17405.6000 2.08643e-14 8.82114e-16
 17410.4000 2.10427e-14 8.89686e-16
 17415.2000 2.08694e-14 8.81787e-16
 17420.1000 2.07597e-14 8.81113e-16
 17424.9000 2.08755e-14 8.78181e-16
 17429.8000 2.10538e-14 8.80713e-16
 17434.6000 2.10739e-14 8.83097e-16
 17439.5000 2.09280e-14 8.77168e-16
 17444.3000 2.08429e-14 8.77062e-16
 17449.2000 2.09593e-14 8.81760e-16
 17454.0000 2.12962e-14 8.94812e-16
 17458.9000 2.11334e-14 8.88561e-16
 17463.7000 2.10244e-14 8.96180e-16
 17468.5000 2.09229e-14 8.96423e-16
 17473.4000 2.08189e-14 8.91179e-16
 17478.2000 2.10692e-14 8.94131e-16
 17483.1000 2.11715e-14 8.90716e-16
 17487.9000 2.13081e-14 8.90003e-16
 17492.8000 2.11932e-14 8.87226e-16
 17497.6000 2.10830e-14 8.81712e-16
 17502.5000 2.10722e-14 8.83785e-16
 17507.3000 2.07724e-14 8.76030e-16
 17512.1000 2.07142e-14 8.79910e-16
 17517.0000 2.07473e-14 8.78925e-16
 17521.8000 2.06933e-14 8.76023e-16
 17526.7000 2.08148e-14 8.78033e-16
 17531.5000 2.08948e-14 8.81941e-16
 17536.4000 2.06145e-14 8.68173e-16
 17541.2000 2.04898e-14 8.66591e-16
 17546.1000 2.03181e-14 8.65136e-16
 17550.9000 2.02697e-14 8.67649e-16
 17555.8000 2.00489e-14 8.55094e-16
 17560.6000 2.01129e-14 8.61063e-16
 17565.4000 2.01090e-14 8.66472e-16
 17570.3000 1.99631e-14 8.60629e-16
 17575.1000 1.98377e-14 8.55254e-16
 17580.0000 2.00209e-14 8.62794e-16
 17584.8000 1.98237e-14 8.48366e-16
 17589.7000 1.98564e-14 8.46487e-16
 17594.5000 1.97635e-14 8.42050e-16
 17599.4000 1.96802e-14 8.41577e-16
 17604.2000 1.95131e-14 8.38412e-16
 17609.1000 1.91615e-14 8.25732e-16
 17613.9000 1.91987e-14 8.25825e-16
 17618.7000 1.92662e-14 8.33695e-16
 17623.6000 1.90694e-14 8.29246e-16
 17628.4000 1.89993e-14 8.26048e-16
 17633.3000 1.90242e-14 8.26839e-16
 17638.1000 1.89515e-14 8.23002e-16
 17643.0000 1.89721e-14 8.23192e-16
 17647.8000 1.90353e-14 8.34243e-16
 17652.7000 1.86052e-14 8.33031e-16
 17657.5000 1.83786e-14 8.37592e-16
 17662.3000 1.82676e-14 8.27819e-16
 17667.2000 1.85516e-14 8.26296e-16
 17672.0000 1.87057e-14 8.18925e-16
 17676.9000 1.86922e-14 8.12343e-16
 17681.7000 1.88548e-14 8.21557e-16
 17686.6000 1.87282e-14 8.17666e-16
 17691.4000 1.85028e-14 8.08721e-16
 17696.3000 1.84715e-14 8.12855e-16
 17701.1000 1.84895e-14 8.16587e-16
 17706.0000 1.85978e-14 8.22056e-16
 17710.8000 1.85282e-14 8.15215e-16
 17715.6000 1.85340e-14 8.11549e-16
 17720.5000 1.85242e-14 8.10335e-16
 17725.3000 1.86053e-14 8.13508e-16
 17730.2000 1.86565e-14 8.17808e-16
 17735.0000 1.86158e-14 8.25613e-16
 17739.9000 1.83374e-14 8.18777e-16
 17744.7000 1.82225e-14 8.18382e-16
 17749.6000 1.80874e-14 8.14832e-16
 17754.4000 1.81529e-14 8.10839e-16
 17759.2000 1.80800e-14 8.13082e-16
 17764.1000 1.80845e-14 8.11755e-16
 17768.9000 1.83249e-14 8.19112e-16
 17773.8000 1.86687e-14 8.33765e-16
 17778.6000 1.84398e-14 8.27461e-16
 17783.5000 1.80674e-14 8.20269e-16
 17788.3000 1.78608e-14 8.14865e-16
 17793.2000 1.79543e-14 8.16124e-16
 17798.0000 1.80924e-14 8.14469e-16
 17802.9000 1.80629e-14 8.09765e-16
 17807.7000 1.79741e-14 8.14159e-16
 17812.5000 1.78063e-14 8.17510e-16
 17817.4000 1.77167e-14 8.11049e-16
 17822.2000 1.79793e-14 8.15006e-16
 17827.1000 1.80523e-14 8.07328e-16
 17831.9000 1.79989e-14 8.05075e-16
 17836.8000 1.79332e-14 8.10370e-16
 17841.6000 1.76886e-14 8.19986e-16
 17846.5000 1.73010e-14 8.18166e-16
 17851.3000 1.68482e-14 8.04581e-16
 17856.1000 1.68245e-14 8.00600e-16
 17861.0000 1.68718e-14 7.96919e-16
 17865.8000 1.69275e-14 7.92079e-16
 17870.7000 1.68534e-14 7.84789e-16
 17875.5000 1.66827e-14 7.72236e-16
 17880.4000 1.69079e-14 7.78525e-16
 17885.2000 1.70035e-14 7.81828e-16
 17890.1000 1.68404e-14 7.70033e-16
 17894.9000 1.67576e-14 7.67762e-16
 17899.8000 1.67586e-14 7.75684e-16
 17904.6000 1.65585e-14 7.78321e-16
 17909.4000 1.63255e-14 7.82016e-16
 17914.3000 1.58588e-14 7.64265e-16
 17919.1000 1.55598e-14 7.52456e-16
 17924.0000 1.56910e-14 7.60466e-16
 17928.8000 1.56649e-14 7.68456e-16
 17933.7000 1.51834e-14 7.54571e-16
 17938.5000 1.48546e-14 7.42413e-16
 17943.4000 1.49277e-14 7.42030e-16
 17948.2000 1.51095e-14 7.46428e-16
 17953.1000 1.47729e-14 7.27112e-16
 17957.9000 1.47092e-14 7.26098e-16
 17962.7000 1.46225e-14 7.29194e-16
 17967.6000 1.43945e-14 7.24652e-16
 17972.4000 1.41749e-14 7.15718e-16
 17977.3000 1.39626e-14 7.01073e-16
 17982.1000 1.39746e-14 6.97844e-16
 17987.0000 1.41477e-14 7.01843e-16
 17991.8000 1.39874e-14 7.08802e-16
 17996.7000 1.36767e-14 7.28399e-16
 18001.5000 1.33531e-14 7.53626e-16
 18006.3000 1.23668e-14 7.58601e-16
 18011.2000 1.16708e-14 7.46831e-16
 18016.0000 1.17988e-14 7.47361e-16
 18020.9000 1.18232e-14 7.27744e-16
 18025.7000 1.16569e-14 7.01524e-16
 18030.6000 1.18582e-14 6.94526e-16
 18035.4000 1.19599e-14 6.84615e-16
 18040.3000 1.17007e-14 6.55731e-16
 18045.1000 1.17402e-14 6.42040e-16
 18050.0000 1.18983e-14 6.52768e-16
 18054.8000 1.18695e-14 6.76456e-16
 18059.6000 1.15387e-14 7.08986e-16
 18064.5000 1.06325e-14 7.13045e-16
 18069.3000 1.01435e-14 6.76110e-16
 18074.2000 1.03461e-14 6.57393e-16
 18079.0000 1.04057e-14 6.34430e-16
 18083.9000 1.05696e-14 6.16596e-16
 18088.7000 1.07032e-14 6.16041e-16
 18093.6000 1.06031e-14 6.15012e-16
 18098.4000 1.04721e-14 6.20297e-16
 18103.3000 1.02729e-14 6.44086e-16
 18108.1000 9.77579e-15 6.68930e-16
 18112.9000 9.50184e-15 6.79637e-16
 18117.8000 9.22561e-15 6.77703e-16
 18122.6000 8.94955e-15 6.83947e-16
 18127.5000 8.94487e-15 6.78706e-16
 18132.3000 8.92405e-15 6.54578e-16
 18137.2000 9.23005e-15 6.17440e-16
 18142.0000 9.44099e-15 6.02194e-16
 18146.9000 9.59487e-15 6.11218e-16
 18151.7000 9.40977e-15 6.42688e-16
 18156.5000 8.86988e-15 6.76867e-16
 18161.4000 7.90995e-15 6.48422e-16
 18166.2000 7.85535e-15 6.09559e-16
 18171.1000 8.24865e-15 5.99347e-16
 18175.9000 8.68029e-15 6.56622e-16
 18180.8000 9.12129e-15 6.30845e-16
 18185.6000 8.81015e-15 6.33947e-16
 18190.5000 8.51920e-15 6.27503e-16
 18195.3000 8.65228e-15 6.66929e-16
 18200.2000 8.73039e-15 7.46218e-16
 18205.0000 8.24985e-15 9.90222e-16
 18209.8000 7.08285e-15 9.29049e-16
 18214.7000 6.28096e-15 8.81796e-16
 18219.5000 6.55127e-15 8.50337e-16
 18224.4000 6.90674e-15 7.56449e-16
 18229.2000 7.74874e-15 6.62047e-16
 18234.1000 8.04501e-15 5.84167e-16
 18238.9000 8.29564e-15 5.45509e-16
 18243.8000 8.56051e-15 5.54956e-16
 18248.6000 8.53767e-15 5.76144e-16
 18253.4000 8.34007e-15 6.14151e-16
 18258.3000 8.31256e-15 6.85098e-16
 18263.1000 7.73431e-15 7.30191e-16
 18268.0000 7.34112e-15 7.17425e-16
 18272.8000 7.63526e-15 7.01493e-16
 18277.7000 7.97685e-15 7.00431e-16
 18282.5000 8.08929e-15 7.51730e-16
 18287.4000 7.54402e-15 8.06101e-16
 18292.2000 6.84775e-15 8.52784e-16
 18297.1000 6.63212e-15 8.16206e-16
 18301.9000 7.12252e-15 8.19749e-16
 18306.7000 7.07512e-15 8.53440e-16
 18311.6000 6.84185e-15 8.56200e-16
 18316.4000 7.30944e-15 8.69296e-16
 18321.3000 7.11546e-15 8.00459e-16
 18326.1000 7.12021e-15 7.61518e-16
 18331.0000 7.30882e-15 7.60572e-16
 18335.8000 7.96192e-15 7.76007e-16
 18340.7000 7.98946e-15 7.67800e-16
 18345.5000 8.61131e-15 8.83893e-16
 18350.3000 8.23472e-15 1.04299e-15
 18355.2000 6.74311e-15 1.15747e-15
 18360.0000 4.91485e-15 1.39550e-15
 18364.9000 4.68822e-15 1.39964e-15
 18369.7000 5.71799e-15 1.50921e-15
 18374.6000 6.76083e-15 1.58090e-15
 18379.4000 5.29317e-15 1.52633e-15
 18384.3000 5.67196e-15 1.22597e-15
 18389.1000 6.49357e-15 1.06396e-15
 18394.0000 6.31069e-15 1.01206e-15
 18398.8000 7.09248e-15 1.21274e-15
 18403.6000 5.91969e-15 1.31919e-15
 18408.5000 5.76341e-15 1.31479e-15
 18413.3000 6.13795e-15 1.53701e-15
 18418.2000 6.49160e-15 1.64421e-15
 18423.0000 6.00807e-15 1.36465e-15
 18427.9000 8.34665e-15 1.45090e-15
 18432.7000 7.65181e-15 1.07129e-15
 18437.6000 7.84252e-15 8.81326e-16
 18442.4000 8.13179e-15 7.79560e-16
 18447.3000 8.79227e-15 7.40472e-16
 18452.1000 9.27941e-15 7.38247e-16
 18456.9000 9.73102e-15 8.08814e-16
 18461.8000 1.09076e-14 1.00521e-15
 18466.6000 1.01308e-14 1.29138e-15
 18471.5000 8.35571e-15 1.66441e-15
 18476.3000 6.93566e-15 2.33858e-15
 18481.2000 3.10574e-15 3.08974e-15
 18486.0000 6.44286e-15 6.98859e-15
 18490.9000 8.17558e-15 7.39997e-15
 18495.7000 7.35539e-15 1.36397e-15
 18500.5000 8.41367e-15 1.19825e-15
 18505.4000 8.25203e-15 1.12008e-15
 18510.2000 7.70588e-15 9.80941e-16
 18515.1000 8.55275e-15 8.85082e-16
 18519.9000 9.40771e-15 8.76971e-16
 18524.8000 1.00028e-14 9.55149e-16
 18529.6000 1.09498e-14 1.20290e-15
 18534.5000 1.03491e-14 1.58717e-15
 18539.3000 7.76325e-15 1.68880e-15
 18544.2000 4.55807e-15 1.15441e-15
 18549.0000 5.88671e-15 1.00805e-15
 18553.8000 7.61814e-15 9.63482e-16
 18558.7000 8.22263e-15 9.68076e-16
 18563.5000 8.80354e-15 1.09341e-15
 18568.4000 7.98809e-15 1.34098e-15
 18573.2000 7.36482e-15 1.31305e-15
 18578.1000 8.01368e-15 1.15365e-15
 18582.9000 6.88721e-15 8.86417e-16
 18587.8000 7.45183e-15 8.86807e-16
 18592.6000 8.41033e-15 1.06504e-15
 18597.4000 9.49800e-15 1.46209e-15
 18602.3000 7.10717e-15 1.69356e-15
 18607.1000 5.93936e-15 1.45225e-15
 18612.0000 7.40295e-15 1.10503e-15
 18616.8000 8.04296e-15 8.73682e-16
 18621.7000 8.30257e-15 7.65718e-16
 18626.5000 8.80921e-15 7.65889e-16
 18631.4000 9.02359e-15 7.99801e-16
 18636.2000 8.49111e-15 8.40587e-16
 18641.1000 8.39021e-15 9.43607e-16
 18645.9000 8.45297e-15 1.04657e-15
 18650.7000 7.64408e-15 9.93239e-16
 18655.6000 7.82988e-15 8.62007e-16
 18660.4000 8.03990e-15 7.45057e-16
 18665.3000 8.59791e-15 7.48468e-16
 18670.1000 8.65679e-15 8.12189e-16
 18675.0000 8.93793e-15 1.04440e-15
 18679.8000 8.07807e-15 1.40130e-15
 18684.7000 6.65616e-15 1.67294e-15
 18689.5000 5.75640e-15 1.83192e-15
 18694.4000 4.02687e-15 1.51031e-15
 18699.2000 4.74484e-15 1.72257e-15
 18704.0000 7.17077e-15 2.82402e-15
 18708.9000 2.97111e-15 4.13937e-15
 18713.7000 2.85081e-15 3.66536e-15
 18718.6000 3.99595e-15 2.50004e-15
 18723.4000 3.12711e-15 1.38412e-15
 18724.7000 4.07909e-15 1.15266e-15
 18731.2000 2.42680e-15 1.21656e-15
 18737.6000 3.90820e-15 1.35598e-15
 18744.1000 4.44310e-15 1.26571e-15
 18750.6000 4.43482e-15 1.18358e-15
 18757.1000 4.53162e-15 9.90086e-16
 18763.5000 5.32085e-15 9.71361e-16
 18770.0000 4.66995e-15 8.46273e-16
 18776.5000 4.62218e-15 6.04391e-16
 18782.9000 5.44603e-15 5.29252e-16
 18789.4000 5.84434e-15 4.72476e-16
 18795.9000 6.27421e-15 4.26658e-16
 18802.4000 6.65491e-15 4.74229e-16
 18808.8000 6.12974e-15 4.97976e-16
 18815.3000 5.38209e-15 4.47323e-16
 18821.8000 5.63155e-15 4.34687e-16
 18828.3000 5.81584e-15 4.20165e-16
 18834.7000 6.03699e-15 4.33824e-16
 18841.2000 5.63770e-15 4.80943e-16
 18847.7000 4.91131e-15 4.72060e-16
 18854.1000 4.82173e-15 4.15428e-16
 18860.6000 5.00674e-15 4.04433e-16
 18867.1000 5.02464e-15 3.91505e-16
 18873.6000 5.07676e-15 3.50450e-16
 18880.0000 5.32792e-15 3.55408e-16
 18886.5000 5.58950e-15 3.68061e-16
 18893.0000 5.89660e-15 3.72232e-16
 18899.5000 5.81680e-15 4.54866e-16
 18905.9000 5.03853e-15 5.12622e-16
 18912.4000 4.38893e-15 4.73845e-16
 18918.9000 4.69389e-15 5.21474e-16
 18925.3000 4.58073e-15 5.44504e-16
 18931.8000 3.83230e-15 4.70060e-16
 18938.3000 3.96856e-15 4.25695e-16
 18944.8000 4.45578e-15 3.79225e-16
 18951.2000 5.00433e-15 4.26336e-16
 18957.7000 5.04997e-15 4.16367e-16
 18964.2000 5.09198e-15 4.38853e-16
 18970.7000 5.05388e-15 4.83343e-16
 18977.1000 4.98172e-15 5.72710e-16
 18983.6000 5.01992e-15 7.07995e-16
 18990.1000 4.09859e-15 8.61968e-16
 18996.5000 3.01928e-15 1.02349e-15
 19003.0000 3.17662e-15 8.60775e-16
 19009.5000 4.09928e-15 7.22736e-16
 19016.0000 4.12579e-15 6.19282e-16
 19022.4000 3.90494e-15 5.71388e-16
 19028.9000 3.84573e-15 5.61020e-16
 19035.4000 4.03318e-15 5.84351e-16
 19041.9000 4.01845e-15 6.08009e-16
 19048.3000 4.10629e-15 7.03552e-16
 19054.8000 4.09420e-15 8.89808e-16
 19061.3000 4.58140e-15 9.04185e-16
 19067.7000 4.36497e-15 6.59236e-16
 19074.2000 4.50119e-15 5.05363e-16
 19080.7000 4.55557e-15 4.39411e-16
 19087.2000 4.60781e-15 4.14860e-16
 19093.6000 4.60816e-15 4.21337e-16
 19100.1000 4.64698e-15 4.57510e-16
 19106.6000 4.79354e-15 5.19871e-16
 19113.1000 4.46500e-15 5.82833e-16
 19119.5000 4.04261e-15 6.00701e-16
 19126.0000 4.16763e-15 6.54706e-16
 19132.5000 3.91152e-15 7.30449e-16
 19138.9000 3.82933e-15 6.85099e-16
 19145.4000 4.43502e-15 6.36200e-16
 19151.9000 4.78292e-15 5.58564e-16
 19158.4000 4.58340e-15 5.10024e-16
 19164.8000 4.61908e-15 4.76567e-16
 19171.3000 4.91552e-15 4.33995e-16
 19177.8000 5.34670e-15 4.01954e-16
 19184.3000 5.42258e-15 4.01220e-16
 19190.7000 5.63228e-15 4.50088e-16
 19197.2000 5.97834e-15 5.70207e-16
 19203.7000 5.02256e-15 6.21931e-16
 19210.1000 4.53474e-15 5.39579e-16
 19216.6000 5.39550e-15 4.68099e-16
 19223.1000 5.64262e-15 4.21059e-16
 19229.6000 5.80112e-15 4.18202e-16
 19236.0000 5.69919e-15 4.28045e-16
 19242.5000 5.39521e-15 4.20610e-16
 19249.0000 5.68306e-15 4.19650e-16
 19255.5000 5.78559e-15 4.06046e-16
 19261.9000 5.76311e-15 4.12639e-16
 19268.4000 5.98010e-15 4.70926e-16
 19274.9000 6.23780e-15 5.36074e-16
 19281.3000 5.07850e-15 4.50684e-16
 19287.8000 5.28017e-15 4.39144e-16
 19294.3000 5.65725e-15 4.46146e-16
 19300.8000 5.84079e-15 4.63826e-16
 19307.2000 5.53285e-15 4.62558e-16
 19313.7000 5.58683e-15 4.58784e-16
 19320.2000 6.13202e-15 4.42369e-16
 19326.7000 6.18760e-15 4.20218e-16
 19333.1000 6.27397e-15 4.15870e-16
 19339.6000 6.20342e-15 4.09308e-16
 19346.1000 6.37441e-15 4.02008e-16
 19352.5000 6.78111e-15 4.18378e-16
 19359.0000 6.80652e-15 4.22775e-16
 19365.5000 6.77202e-15 4.35849e-16
 19372.0000 6.53441e-15 4.31461e-16
 19378.4000 6.53498e-15 4.44127e-16
 19384.9000 6.53473e-15 4.55025e-16
 19391.4000 6.59534e-15 4.90079e-16
 19397.9000 6.75328e-15 4.96450e-16
 19404.3000 7.11163e-15 4.79886e-16
 19410.8000 7.29987e-15 4.58247e-16
 19417.3000 7.58950e-15 4.47695e-16
 19423.8000 8.07797e-15 4.49649e-16
 19430.2000 8.06171e-15 4.46344e-16
 19436.7000 8.02699e-15 4.58378e-16
 19443.2000 8.00105e-15 4.75621e-16
 19449.6000 7.84957e-15 4.73233e-16
 19456.1000 8.10765e-15 4.75117e-16
 19462.6000 8.40258e-15 4.70100e-16
 19469.1000 8.36817e-15 4.64259e-16
 19475.5000 8.29450e-15 4.66757e-16
 19482.0000 8.38536e-15 4.77257e-16
 19488.5000 8.51758e-15 4.78190e-16
 19495.0000 8.47235e-15 4.71463e-16
 19501.4000 8.73364e-15 4.73818e-16
 19507.9000 9.03312e-15 4.81269e-16
 19514.4000 9.28339e-15 4.89402e-16
 19520.8000 9.40956e-15 5.03020e-16
 19527.3000 9.40868e-15 5.17474e-16
 19533.8000 9.25732e-15 5.24057e-16
 19540.3000 9.23484e-15 5.33653e-16
 19546.7000 9.11439e-15 5.36417e-16
 19553.2000 9.38533e-15 5.56205e-16
 19559.7000 9.28971e-15 5.57914e-16
 19566.2000 9.36728e-15 5.63523e-16
 19572.6000 9.59123e-15 5.72378e-16
 19579.1000 9.76676e-15 5.80083e-16
 19585.6000 1.00082e-14 5.72163e-16
 19592.0000 1.03455e-14 5.62380e-16
 19598.5000 1.05608e-14 5.47407e-16
 19605.0000 1.10016e-14 5.49923e-16
 19611.5000 1.12922e-14 5.53040e-16
 19617.9000 1.14433e-14 5.63192e-16
 19624.4000 1.10865e-14 5.53832e-16
 19630.9000 1.11335e-14 5.69275e-16
 19637.4000 1.12229e-14 5.73600e-16
 19643.8000 1.13506e-14 5.70309e-16
 19650.3000 1.14672e-14 5.61923e-16
 19656.8000 1.18675e-14 5.70110e-16
 19663.2000 1.20651e-14 5.68184e-16
 19669.7000 1.23759e-14 5.75495e-16
 19676.2000 1.24106e-14 5.71143e-16
 19682.7000 1.24894e-14 5.69623e-16
 19689.1000 1.26582e-14 5.70838e-16
 19695.6000 1.29435e-14 5.78372e-16
 19702.1000 1.28464e-14 5.73563e-16
 19708.6000 1.29119e-14 5.75113e-16
 19715.0000 1.28359e-14 5.71562e-16
 19721.5000 1.28819e-14 5.71852e-16
 19728.0000 1.30985e-14 5.71760e-16
 19734.4000 1.34080e-14 5.81082e-16
 19740.9000 1.33468e-14 5.73766e-16
 19747.4000 1.33582e-14 5.71758e-16
 19753.9000 1.34934e-14 5.71073e-16
 19760.3000 1.38010e-14 5.78219e-16
 19766.8000 1.38357e-14 5.73931e-16
 19773.3000 1.38570e-14 5.72435e-16
 19779.8000 1.40129e-14 5.77863e-16
 19786.2000 1.40800e-14 5.88355e-16
 19792.7000 1.39341e-14 5.87469e-16
 19799.2000 1.38070e-14 5.86568e-16
 19805.6000 1.37625e-14 5.78238e-16
 19812.1000 1.40874e-14 5.84616e-16
 19818.6000 1.42955e-14 5.85562e-16
 19825.1000 1.42938e-14 5.80856e-16
 19831.5000 1.42906e-14 5.78045e-16
 19838.0000 1.42445e-14 5.77761e-16
 19844.5000 1.42566e-14 5.77541e-16
 19851.0000 1.43328e-14 5.82515e-16
 19857.4000 1.42381e-14 5.79697e-16
 19863.9000 1.41255e-14 5.82042e-16
 19870.4000 1.40079e-14 5.77325e-16
 19876.8000 1.40291e-14 5.76029e-16
 19883.3000 1.41510e-14 5.75009e-16
 19889.8000 1.42612e-14 5.81414e-16
 19896.3000 1.41386e-14 5.79740e-16
 19902.7000 1.39037e-14 5.73165e-16
 19909.2000 1.37821e-14 5.62950e-16
 19915.7000 1.39911e-14 5.71090e-16
 19922.2000 1.40589e-14 5.66053e-16
 19928.6000 1.39341e-14 5.64906e-16
 19935.1000 1.39100e-14 5.62594e-16
 19941.6000 1.38333e-14 5.66399e-16
 19948.0000 1.37559e-14 5.63797e-16
 19954.5000 1.35237e-14 5.59768e-16
 19961.0000 1.36309e-14 5.70325e-16
 19967.5000 1.33747e-14 5.68886e-16
 19973.9000 1.32191e-14 5.73785e-16
 19980.4000 1.31200e-14 5.85275e-16
 19986.9000 1.28942e-14 5.89504e-16
 19993.4000 1.26379e-14 5.96867e-16
 19999.8000 1.24658e-14 6.06981e-16
 20006.3000 1.19155e-14 6.05581e-16
 20012.8000 1.17210e-14 6.22757e-16
 20019.3000 1.16757e-14 6.45211e-16
 20025.7000 1.13064e-14 6.47340e-16
 20032.2000 1.11162e-14 6.43135e-16
 20038.7000 1.07758e-14 6.30994e-16
 20045.1000 1.08653e-14 6.43842e-16
 20051.6000 1.07269e-14 6.33221e-16
 20058.1000 1.07479e-14 6.25999e-16
 20064.6000 1.11334e-14 6.14233e-16
 20071.0000 1.12220e-14 5.90352e-16
 20077.5000 1.14441e-14 5.72309e-16
 20084.0000 1.15165e-14 5.62277e-16
 20090.5000 1.15877e-14 5.55656e-16
 20096.9000 1.13280e-14 5.48967e-16
 20103.4000 1.11571e-14 5.60213e-16
 20109.9000 1.07410e-14 5.57000e-16
 20116.3000 1.06712e-14 5.61933e-16
 20122.8000 1.05123e-14 5.60395e-16
 20129.3000 1.04342e-14 5.53932e-16
 20135.8000 1.01518e-14 5.41287e-16
 20142.2000 1.03005e-14 5.41782e-16
 20148.7000 1.01352e-14 5.32346e-16
 20155.2000 1.01042e-14 5.24367e-16
 20161.7000 9.97083e-15 5.17769e-16
 20168.1000 1.00830e-14 5.21319e-16
 20174.6000 9.97474e-15 5.10617e-16
 20181.1000 9.99494e-15 5.05331e-16
 20187.5000 1.00459e-14 5.00253e-16
 20194.0000 1.00610e-14 4.90356e-16
 20200.5000 9.93805e-15 4.78989e-16
 20207.0000 9.93992e-15 4.71996e-16
 20213.4000 9.88077e-15 4.64343e-16
 20219.9000 9.86660e-15 4.57591e-16
 20226.4000 9.84646e-15 4.52588e-16
 20232.9000 9.76453e-15 4.45501e-16
 20239.3000 9.65377e-15 4.37259e-16
 20245.8000 9.60510e-15 4.34250e-16
 20252.3000 9.54153e-15 4.26992e-16
 20258.7000 9.49541e-15 4.21692e-16
 20265.2000 9.21342e-15 4.09066e-16
 20271.7000 9.12145e-15 4.05843e-16
 20278.2000 9.04345e-15 4.03397e-16
 20284.6000 8.95773e-15 3.99423e-16
 20291.1000 8.82577e-15 3.91939e-16
 20297.6000 8.82437e-15 3.90935e-16
 20304.1000 8.79643e-15 3.88976e-16
 20310.5000 8.75670e-15 3.87670e-16
 20317.0000 8.61734e-15 3.80849e-16
 20323.5000 8.52451e-15 3.77629e-16
 20329.9000 8.36312e-15 3.71653e-16
 20336.4000 8.24535e-15 3.68850e-16
 20342.9000 8.18659e-15 3.64998e-16
 20349.4000 8.09164e-15 3.63302e-16
 20355.8000 8.06105e-15 3.59917e-16
 20362.3000 7.92999e-15 3.55661e-16
 20368.8000 7.83010e-15 3.51529e-16
 20375.3000 7.72222e-15 3.47939e-16
 20381.7000 7.60190e-15 3.43029e-16
 20388.2000 7.50287e-15 3.41613e-16
 20394.7000 7.34461e-15 3.36031e-16
 20401.1000 7.30701e-15 3.38335e-16
 20407.6000 7.29332e-15 3.36136e-16
 20414.1000 7.13159e-15 3.32374e-16
 20420.6000 7.06879e-15 3.28023e-16
 20427.0000 6.93750e-15 3.22984e-16
 20433.5000 6.89231e-15 3.19998e-16
 20440.0000 6.90024e-15 3.21154e-16
 20446.5000 6.85119e-15 3.19043e-16
 20452.9000 6.80379e-15 3.17880e-16
 20459.4000 6.70665e-15 3.12403e-16
 20465.9000 6.60746e-15 3.12563e-16
 20472.4000 6.51107e-15 3.08378e-16
 20478.8000 6.43057e-15 3.09428e-16
 20485.3000 6.35807e-15 3.08493e-16
 20491.8000 6.19516e-15 3.07134e-16
 20498.2000 6.21594e-15 3.09975e-16
 20504.7000 6.17442e-15 3.12822e-16
 20511.2000 6.11633e-15 3.10216e-16
 20517.7000 5.98897e-15 3.09717e-16
 20524.1000 5.95115e-15 3.10086e-16
 20530.6000 5.91447e-15 3.12193e-16
 20537.1000 5.86398e-15 3.10645e-16
 20543.6000 5.85980e-15 3.11922e-16
 20550.0000 5.73332e-15 3.06508e-16
 20556.5000 5.74871e-15 3.07902e-16
 20563.0000 5.73523e-15 3.07921e-16
 20569.4000 5.54755e-15 3.01415e-16
 20575.9000 5.67948e-15 2.99965e-16
 20582.4000 5.80608e-15 3.00761e-16
 20588.9000 5.84814e-15 2.96866e-16
 20595.3000 5.72347e-15 2.87874e-16
 20601.8000 5.80994e-15 2.88080e-16
 20608.3000 5.75623e-15 2.87415e-16
 20614.8000 5.73861e-15 2.87151e-16
 20621.2000 5.63567e-15 2.88313e-16
 20627.7000 5.70632e-15 2.92543e-16
 20634.2000 5.59236e-15 2.90730e-16
 20640.6000 5.63047e-15 2.91656e-16
 20647.1000 5.63097e-15 2.93772e-16
 20653.6000 5.67043e-15 2.93910e-16
 20660.1000 5.70093e-15 2.95541e-16
 20666.5000 5.83164e-15 2.98688e-16
 20673.0000 5.77108e-15 2.96937e-16
 20679.5000 5.82511e-15 2.96345e-16
 20686.0000 5.81692e-15 2.95452e-16
 20692.4000 5.87427e-15 2.96387e-16
 20698.9000 5.93945e-15 2.98223e-16
 20705.4000 5.96803e-15 2.97037e-16
 20711.8000 5.97100e-15 2.96821e-16
 20718.3000 6.07365e-15 2.98151e-16
 20724.8000 6.08391e-15 2.99212e-16
 20731.3000 6.12591e-15 2.98948e-16
 20737.7000 6.12773e-15 2.98101e-16
 20744.2000 6.34901e-15 3.03231e-16
 20750.7000 6.33596e-15 3.02740e-16
 20757.2000 6.29478e-15 3.02687e-16
 20763.6000 6.26343e-15 3.01336e-16
 20770.1000 6.52606e-15 3.04095e-16
 20776.6000 6.53378e-15 3.06159e-16
 20783.0000 6.60984e-15 3.06950e-16
 20789.5000 6.66380e-15 3.07347e-16
 20796.0000 6.75576e-15 3.08268e-16
 20802.5000 6.71610e-15 3.07326e-16
 20808.9000 6.82357e-15 3.10647e-16
 20815.4000 6.75229e-15 3.09180e-16
 20821.9000 6.85436e-15 3.11132e-16
 20828.4000 6.85173e-15 3.13549e-16
 20834.8000 6.96487e-15 3.17380e-16
 20841.3000 6.97842e-15 3.17908e-16
 20847.8000 6.99352e-15 3.16802e-16
 20854.2000 6.99335e-15 3.17136e-16
 20860.7000 7.09937e-15 3.18337e-16
 20867.2000 7.06594e-15 3.16993e-16
 20873.7000 7.11229e-15 3.19733e-16
 20880.1000 7.16106e-15 3.21286e-16
 20886.6000 7.22666e-15 3.22609e-16
 20893.1000 7.22729e-15 3.23280e-16
 20899.6000 7.26683e-15 3.23630e-16
 20906.0000 7.30229e-15 3.24781e-16
 20912.5000 7.42145e-15 3.28830e-16
 20919.0000 7.43960e-15 3.29546e-16
 20925.4000 7.47135e-15 3.29516e-16
 20931.9000 7.39453e-15 3.28780e-16
 20938.4000 7.46736e-15 3.30433e-16
 20944.9000 7.53390e-15 3.32283e-16
 20951.3000 7.59183e-15 3.34779e-16
 20957.8000 7.57036e-15 3.32654e-16
 20964.3000 7.55216e-15 3.30396e-16
 20970.8000 7.56400e-15 3.30836e-16
 20977.2000 7.62456e-15 3.34508e-16
 20983.7000 7.53825e-15 3.30933e-16
 20990.2000 7.45699e-15 3.27653e-16
 20996.6000 7.52290e-15 3.33423e-16
 21003.1000 7.54803e-15 3.32566e-16
 21009.6000 7.49218e-15 3.29845e-16
 21016.1000 7.46540e-15 3.28788e-16
 21022.5000 7.50251e-15 3.29791e-16
 21029.0000 7.51915e-15 3.29203e-16
 21035.5000 7.54892e-15 3.28321e-16
 21042.0000 7.54086e-15 3.32012e-16
 21048.4000 7.53965e-15 3.30170e-16
 21054.9000 7.51651e-15 3.29155e-16
 21061.4000 7.46027e-15 3.27671e-16
 21067.9000 7.43764e-15 3.27355e-16
 21074.3000 7.49630e-15 3.28251e-16
 21080.8000 7.52421e-15 3.29543e-16
 21087.3000 7.51809e-15 3.29980e-16
 21093.7000 7.47997e-15 3.28733e-16
 21100.2000 7.45380e-15 3.27713e-16
 21106.7000 7.34397e-15 3.24621e-16
 21113.2000 7.33176e-15 3.22474e-16
 21119.6000 7.28155e-15 3.22420e-16
 21126.1000 7.29409e-15 3.21216e-16
 21132.6000 7.27914e-15 3.20957e-16
 21139.1000 7.29572e-15 3.20318e-16
 21145.5000 7.24306e-15 3.17679e-16
 21152.0000 7.24235e-15 3.17708e-16
 21158.5000 7.17643e-15 3.17615e-16
 21164.9000 7.15388e-15 3.15421e-16
 21171.4000 7.10250e-15 3.14612e-16
 21177.9000 7.08439e-15 3.12139e-16
 21184.4000 7.00715e-15 3.12228e-16
 21190.8000 7.00827e-15 3.10754e-16
 21197.3000 7.02094e-15 3.12056e-16
 21203.8000 7.10375e-15 3.14318e-16
 21210.3000 6.99457e-15 3.11184e-16
 21216.7000 7.09367e-15 3.12713e-16
 21223.2000 6.99803e-15 3.11726e-16
 21229.7000 6.99442e-15 3.10295e-16
 21236.1000 6.96151e-15 3.09896e-16
 21242.6000 6.89824e-15 3.06775e-16
 21249.1000 6.81182e-15 3.03835e-16
 21255.6000 6.90209e-15 3.06005e-16
 21262.0000 6.82378e-15 3.05489e-16
 21268.5000 6.85971e-15 3.04919e-16
 21275.0000 6.75343e-15 3.04142e-16
 21281.5000 6.79584e-15 3.04634e-16
 21287.9000 6.73588e-15 3.02981e-16
 21294.4000 6.82277e-15 3.04770e-16
 21300.9000 6.66814e-15 2.98488e-16
 21307.3000 6.73064e-15 2.99604e-16
 21313.8000 6.66595e-15 3.00204e-16
 21320.3000 6.75622e-15 3.02479e-16
 21326.8000 6.60327e-15 2.98591e-16
 21333.2000 6.61901e-15 2.95855e-16
 21339.7000 6.61758e-15 2.98088e-16
 21346.2000 6.64181e-15 2.95692e-16
 21352.7000 6.51581e-15 2.93240e-16
 21359.1000 6.55919e-15 2.95113e-16
 21365.6000 6.50424e-15 2.93470e-16
 21372.1000 6.56742e-15 2.94860e-16
 21378.5000 6.48958e-15 2.93399e-16
 21385.0000 6.49517e-15 2.93001e-16
 21391.5000 6.43648e-15 2.91319e-16
 21398.0000 6.49300e-15 2.92496e-16
 21404.4000 6.40602e-15 2.90873e-16
 21410.9000 6.40159e-15 2.89866e-16
 21417.4000 6.29873e-15 2.87314e-16
 21423.9000 6.36559e-15 2.88134e-16
 21430.3000 6.26413e-15 2.87370e-16
 21436.8000 6.27626e-15 2.84837e-16
 21443.3000 6.12007e-15 2.80518e-16
 21449.7000 6.22206e-15 2.82405e-16
 21456.2000 6.15609e-15 2.82974e-16
 21462.7000 6.18671e-15 2.83060e-16
 21469.2000 6.05937e-15 2.77830e-16
 21475.6000 6.07905e-15 2.79811e-16
 21482.1000 5.98853e-15 2.77087e-16
 21488.6000 6.00574e-15 2.76723e-16
 21495.1000 5.91540e-15 2.75763e-16
 21501.5000 5.84975e-15 2.73180e-16
 21508.0000 5.84298e-15 2.74107e-16
 21514.5000 5.84023e-15 2.72828e-16
 21520.9000 5.88235e-15 2.74310e-16
 21527.4000 5.82923e-15 2.69878e-16
 21533.9000 5.73801e-15 2.69289e-16
 21540.4000 5.70748e-15 2.66004e-16
 21546.8000 5.66033e-15 2.66283e-16
 21553.3000 5.63925e-15 2.64031e-16
 21559.8000 5.62080e-15 2.62878e-16
 21566.3000 5.59188e-15 2.62172e-16
 21572.7000 5.53873e-15 2.61387e-16
 21579.2000 5.55836e-15 2.60796e-16
 21585.7000 5.46482e-15 2.58714e-16
 21592.1000 5.45271e-15 2.59067e-16
 21598.6000 5.35907e-15 2.55855e-16
 21605.1000 5.37690e-15 2.55490e-16
 21611.6000 5.30522e-15 2.55079e-16
 21618.0000 5.31742e-15 2.55545e-16
 21624.5000 5.21187e-15 2.51355e-16
 21631.0000 5.13232e-15 2.48537e-16
 21637.5000 5.05243e-15 2.46478e-16
 21643.9000 5.08242e-15 2.47768e-16
 21650.4000 5.05291e-15 2.45930e-16
 21656.9000 5.08450e-15 2.46313e-16
 21663.4000 4.92699e-15 2.41024e-16
 21669.8000 4.94686e-15 2.41544e-16
 21676.3000 4.84671e-15 2.37429e-16
 21682.8000 4.80877e-15 2.36014e-16
 21689.2000 4.71160e-15 2.32624e-16
 21695.7000 4.73784e-15 2.33754e-16
 21702.2000 4.69253e-15 2.32575e-16
 21708.7000 4.69689e-15 2.32736e-16
 21715.1000 4.64158e-15 2.31748e-16
 21721.6000 4.61083e-15 2.29259e-16
 21728.1000 4.51861e-15 2.26971e-16
 21734.6000 4.50268e-15 2.25401e-16
 21741.0000 4.44403e-15 2.22562e-16
 21747.5000 4.49507e-15 2.23588e-16
 21754.0000 4.43710e-15 2.22444e-16
 21760.4000 4.40412e-15 2.21358e-16
 21766.9000 4.37665e-15 2.20791e-16
 21773.4000 4.37219e-15 2.20496e-16
 21779.9000 4.37497e-15 2.21218e-16
 21786.3000 4.35798e-15 2.20174e-16
 21792.8000 4.26402e-15 2.18102e-16
 21799.3000 4.27718e-15 2.17013e-16
 21805.8000 4.31878e-15 2.18393e-16
 21812.2000 4.29167e-15 2.17797e-16
 21818.7000 4.27915e-15 2.18169e-16
 21825.2000 4.28838e-15 2.18465e-16
 21831.6000 4.33601e-15 2.21169e-16
 21838.1000 4.32427e-15 2.19919e-16
 21844.6000 4.32217e-15 2.20864e-16
 21851.1000 4.35297e-15 2.21570e-16
 21857.5000 4.38244e-15 2.21936e-16
 21864.0000 4.40173e-15 2.21739e-16
 21870.5000 4.39288e-15 2.23574e-16
 21877.0000 4.41214e-15 2.23644e-16
 21883.4000 4.47647e-15 2.25939e-16
 21889.9000 4.52026e-15 2.25704e-16
 21896.4000 4.54776e-15 2.28128e-16
 21902.8000 4.56582e-15 2.28085e-16
 21909.3000 4.57654e-15 2.28725e-16
 21915.8000 4.64641e-15 2.31752e-16
 21922.3000 4.71816e-15 2.33775e-16
 21928.7000 4.76017e-15 2.35164e-16
 21935.2000 4.73221e-15 2.34417e-16
 21941.7000 4.75269e-15 2.34942e-16
 21948.2000 4.85513e-15 2.39908e-16
 21954.6000 4.89242e-15 2.41693e-16
 21961.1000 5.00879e-15 2.46251e-16
 21967.6000 5.06262e-15 2.47663e-16
 21974.0000 5.09460e-15 2.49234e-16
 21980.5000 5.11527e-15 2.50029e-16
 21987.0000 5.19276e-15 2.54564e-16
 21993.5000 5.23798e-15 2.57785e-16
 21999.9000 5.35543e-15 2.63062e-16
 22006.4000 5.41193e-15 2.65031e-16
 22012.9000 5.52033e-15 2.67689e-16
 22019.4000 5.59821e-15 2.69511e-16
 22025.8000 5.66208e-15 2.71874e-16
 22032.3000 5.73976e-15 2.73623e-16
 22038.8000 5.87126e-15 2.79926e-16
 22045.2000 5.93017e-15 2.82480e-16
 22051.7000 6.02314e-15 2.86258e-16
 22058.2000 6.05296e-15 2.86292e-16
 22064.7000 6.19110e-15 2.89679e-16
 22071.1000 6.28573e-15 2.92879e-16
 22077.6000 6.43032e-15 2.98773e-16
 22084.1000 6.48296e-15 2.99509e-16
 22090.6000 6.57297e-15 3.02612e-16
 22097.0000 6.62090e-15 3.05747e-16
 22103.5000 6.71437e-15 3.09852e-16
 22110.0000 6.67672e-15 3.08640e-16
 22116.4000 6.82197e-15 3.13259e-16
 22122.9000 6.85310e-15 3.13718e-16
 22129.4000 6.96145e-15 3.17502e-16
 22135.9000 7.07011e-15 3.22362e-16
 22142.3000 7.16633e-15 3.26087e-16
 22148.8000 7.18268e-15 3.27483e-16
 22155.3000 7.30637e-15 3.32199e-16
 22161.8000 7.28621e-15 3.32716e-16
 22168.2000 7.43260e-15 3.37972e-16
 22174.7000 7.49427e-15 3.39507e-16
 22181.2000 7.61268e-15 3.42045e-16
 22187.7000 7.65027e-15 3.44099e-16
 22194.1000 7.74366e-15 3.47241e-16
 22200.6000 7.73688e-15 3.47198e-16
 22207.1000 7.83263e-15 3.51316e-16
 22213.5000 7.87619e-15 3.55276e-16
 22220.0000 8.02665e-15 3.62321e-16
 22226.5000 7.99733e-15 3.59993e-16
 22233.0000 8.16923e-15 3.64196e-16
 22239.4000 8.12726e-15 3.64451e-16
 22245.9000 8.28597e-15 3.69798e-16
 22252.4000 8.22749e-15 3.67715e-16
 22258.9000 8.24562e-15 3.68703e-16
 22265.3000 8.16796e-15 3.66659e-16
 22271.8000 8.36140e-15 3.72681e-16
 22278.3000 8.33976e-15 3.72290e-16
 22284.7000 8.48576e-15 3.76600e-16
 22291.2000 8.43182e-15 3.76380e-16
 22297.7000 8.48261e-15 3.76993e-16
 22304.2000 8.44063e-15 3.77462e-16
 22310.6000 8.51506e-15 3.80363e-16
 22317.1000 8.47970e-15 3.79933e-16
 22323.6000 8.61176e-15 3.83569e-16
 22330.1000 8.46004e-15 3.80030e-16
 22336.5000 8.60917e-15 3.84971e-16
 22343.0000 8.60398e-15 3.83495e-16
 22349.5000 8.68390e-15 3.84584e-16
 22355.9000 8.52819e-15 3.80994e-16
 22362.4000 8.61326e-15 3.85878e-16
 22368.9000 8.56443e-15 3.85638e-16
 22375.4000 8.66244e-15 3.87075e-16
 22381.8000 8.52544e-15 3.83064e-16
 22388.3000 8.43382e-15 3.78236e-16
 22394.8000 8.54950e-15 3.85790e-16
 22401.3000 8.63259e-15 3.86100e-16
 22407.7000 8.42496e-15 3.79553e-16
 22414.2000 8.57210e-15 3.84614e-16
 22420.7000 8.46041e-15 3.84444e-16
 22427.1000 8.45602e-15 3.82718e-16
 22433.6000 8.30792e-15 3.79036e-16
 22440.1000 8.42232e-15 3.83096e-16
 22446.6000 8.28424e-15 3.77154e-16
 22453.0000 8.32187e-15 3.77805e-16
 22459.5000 8.17329e-15 3.73268e-16
 22466.0000 8.24528e-15 3.76018e-16
 22472.5000 8.13171e-15 3.73236e-16
 22478.9000 8.24181e-15 3.78940e-16
 22485.4000 8.17396e-15 3.76657e-16
 22491.9000 8.17308e-15 3.74058e-16
 22498.3000 7.99692e-15 3.68528e-16
 22504.8000 8.03358e-15 3.69888e-16
 22511.3000 7.92282e-15 3.66057e-16
 22517.8000 7.94920e-15 3.65693e-16
 22524.2000 7.75858e-15 3.59268e-16
 22530.7000 7.78904e-15 3.62215e-16
 22537.2000 7.70303e-15 3.62208e-16
 22543.7000 7.80418e-15 3.65857e-16
 22550.1000 7.63927e-15 3.58433e-16
 22556.6000 7.60972e-15 3.57202e-16
 22563.1000 7.42208e-15 3.49456e-16
 22569.5000 7.38671e-15 3.51508e-16
 22576.0000 7.27706e-15 3.48450e-16
 22582.5000 7.32066e-15 3.45534e-16
 22589.0000 7.14761e-15 3.39263e-16
 22595.4000 7.11852e-15 3.38225e-16
 22601.9000 6.98702e-15 3.35684e-16
 22608.4000 6.98161e-15 3.35390e-16
 22614.9000 6.87589e-15 3.33243e-16
 22621.3000 6.90566e-15 3.35354e-16
 22627.8000 6.70581e-15 3.25870e-16
 22634.3000 6.62231e-15 3.20793e-16
 22640.7000 6.51947e-15 3.18646e-16
 22647.2000 6.59394e-15 3.22630e-16
 22653.7000 6.43397e-15 3.16976e-16
 22660.2000 6.41378e-15 3.14038e-16
 22666.6000 6.25721e-15 3.08314e-16
 22673.1000 6.27477e-15 1.97769e-16
 22679.6000 6.12692e-15 7.38331e-16
 22686.1000 6.00893e-15 9.27794e-16
 22692.5000 5.88498e-15 1.83609e-16
 22699.0000 5.89001e-15 2.95814e-16
 22705.5000 5.68777e-15 2.88395e-16
 22711.9000 5.70097e-15 2.87625e-16
 22718.4000 5.51424e-15 2.82865e-16
 22724.9000 5.55762e-15 2.82503e-16
 22731.4000 5.45488e-15 2.80910e-16
 22737.8000 5.42033e-15 2.77530e-16
 22744.3000 5.22442e-15 2.73124e-16
 22750.8000 5.18378e-15 2.72158e-16
 22757.3000 5.09984e-15 2.70748e-16
 22763.7000 4.99911e-15 2.65924e-16
 22770.2000 4.98769e-15 2.66350e-16
 22776.7000 4.96198e-15 2.62333e-16
 22783.2000 4.82905e-15 2.56823e-16
 22789.6000 4.82466e-15 2.54286e-16
 22796.1000 4.64250e-15 2.50860e-16
 22802.6000 4.57475e-15 2.47905e-16
 22809.0000 4.52452e-15 2.46956e-16
 22815.5000 4.50778e-15 2.45772e-16
 22822.0000 4.36573e-15 2.41651e-16
 22828.5000 4.25137e-15 2.37348e-16
 22834.9000 4.13242e-15 2.34489e-16
 22841.4000 4.12857e-15 2.32263e-16
 22847.9000 4.08576e-15 2.30721e-16
 22854.4000 4.06624e-15 2.29289e-16
 22860.8000 3.97274e-15 2.25234e-16
 22867.3000 3.93953e-15 2.22961e-16
 22873.8000 3.89855e-15 2.21973e-16
 22880.2000 3.88588e-15 2.21478e-16
 22886.7000 3.78862e-15 2.18635e-16
 22893.2000 3.73528e-15 2.17497e-16
 22899.7000 3.68176e-15 2.16452e-16
 22906.1000 3.64738e-15 2.14909e-16
 22912.6000 3.56851e-15 2.12482e-16
 22919.1000 3.55354e-15 2.09939e-16
 22925.6000 3.50860e-15 2.07962e-16
 22932.0000 3.45594e-15 2.05465e-16
 22938.5000 3.38222e-15 2.04123e-16
 22945.0000 3.35970e-15 2.03721e-16
 22951.4000 3.26529e-15 2.01482e-16
 22957.9000 3.29705e-15 2.02140e-16
 22964.4000 3.30348e-15 2.01587e-16
 22970.9000 3.26502e-15 1.98896e-16
 22977.3000 3.22394e-15 1.99657e-16
 22983.8000 3.22792e-15 1.99730e-16
 22990.3000 3.16495e-15 1.98095e-16
 22996.8000 3.08648e-15 1.95508e-16
 23003.2000 3.06739e-15 1.94228e-16
 23009.7000 3.04394e-15 1.91406e-16
 23016.2000 3.00091e-15 1.89850e-16
 23022.6000 2.96200e-15 1.87283e-16
 23029.1000 2.97326e-15 1.89029e-16
 23035.6000 3.01967e-15 1.92101e-16
 23042.1000 2.97343e-15 1.90418e-16
 23048.5000 2.95672e-15 1.88633e-16
 23055.0000 2.95403e-15 1.88338e-16
 23061.5000 2.94446e-15 1.87000e-16
 23068.0000 2.93225e-15 1.86147e-16
 23074.4000 2.91260e-15 1.84995e-16
 23080.9000 2.87790e-15 1.83659e-16
 23087.4000 2.84021e-15 1.81409e-16
 23093.8000 2.85192e-15 1.81731e-16
 23100.3000 2.89441e-15 1.82514e-16
 23106.8000 2.87292e-15 1.81739e-16
 23113.3000 2.90775e-15 1.81114e-16
 23119.7000 2.87133e-15 1.79876e-16
 23126.2000 2.88606e-15 1.80847e-16
 23132.7000 2.89343e-15 1.81920e-16
 23139.2000 2.92116e-15 1.83001e-16
 23145.6000 2.96124e-15 1.85126e-16
 23152.1000 2.92591e-15 1.84980e-16
 23158.6000 2.84919e-15 1.86265e-16
 23165.0000 2.79448e-15 1.89241e-16
 23171.5000 2.78489e-15 1.91079e-16
 23178.0000 2.80632e-15 1.93168e-16
 23184.5000 2.83762e-15 1.92636e-16
 23190.9000 2.87095e-15 1.90892e-16
 23197.4000 2.95312e-15 1.92305e-16
 23203.9000 2.95361e-15 1.90446e-16
 23210.4000 2.94990e-15 1.89407e-16
 23216.8000 2.95487e-15 1.87717e-16
 23223.3000 2.98060e-15 1.90569e-16
 23229.8000 2.97746e-15 1.90027e-16
 23236.2000 2.96087e-15 1.89229e-16
 23242.7000 2.98242e-15 1.89148e-16
 23249.2000 3.01056e-15 1.90628e-16
 23255.7000 2.96694e-15 1.88496e-16
 23262.1000 3.00599e-15 1.89892e-16
 23268.6000 3.03697e-15 1.90521e-16
 23275.1000 3.09010e-15 1.93700e-16
 23281.6000 3.06170e-15 1.93399e-16
 23288.0000 3.04873e-15 1.94445e-16
 23294.5000 3.16647e-15 1.98217e-16
 23301.0000 3.24792e-15 2.01600e-16
 23307.4000 3.19412e-15 1.98373e-16
 23313.9000 3.21365e-15 2.00482e-16
 23320.4000 3.22801e-15 2.01167e-16
 23326.9000 3.26260e-15 2.02852e-16
 23333.3000 3.26006e-15 2.01155e-16
 23339.8000 3.29198e-15 2.02650e-16
 23346.3000 3.29426e-15 2.03194e-16
 23352.8000 3.35813e-15 2.07702e-16
 23359.2000 3.38699e-15 2.08722e-16
 23365.7000 3.43389e-15 2.10091e-16
 23372.2000 3.45343e-15 2.09581e-16
 23378.7000 3.48776e-15 2.12102e-16
 23385.1000 3.45624e-15 2.12523e-16
 23391.6000 3.52705e-15 2.16587e-16
 23398.1000 3.49600e-15 2.17746e-16
 23404.5000 3.55309e-15 2.22856e-16
 23411.0000 3.62588e-15 2.23806e-16
 23417.5000 3.70909e-15 2.25161e-16
 23424.0000 3.64274e-15 2.21651e-16
 23430.4000 3.76240e-15 2.25145e-16
 23436.9000 3.86793e-15 2.29100e-16
 23443.4000 3.89873e-15 2.31514e-16
 23449.9000 3.79730e-15 2.28316e-16
 23456.3000 3.83272e-15 2.28755e-16
 23462.8000 3.83640e-15 2.30299e-16
 23469.3000 3.96811e-15 2.37705e-16
 23475.7000 3.99451e-15 2.39015e-16
 23482.2000 4.05002e-15 2.40332e-16
 23488.7000 4.04243e-15 2.41288e-16
 23495.2000 4.15869e-15 2.46623e-16
 23501.6000 4.03445e-15 2.42143e-16
 23508.1000 4.01375e-15 2.42191e-16
 23514.6000 4.06756e-15 2.44783e-16
 23521.1000 4.19892e-15 2.51453e-16
 23527.5000 4.19144e-15 2.50126e-16
 23534.0000 4.34336e-15 2.53511e-16
 23540.5000 4.34308e-15 2.52012e-16
 23546.9000 4.41508e-15 2.56219e-16
 23553.4000 4.34238e-15 2.53695e-16
 23559.9000 4.46607e-15 2.59048e-16
 23566.4000 4.42120e-15 2.57736e-16
 23572.8000 4.50038e-15 2.58401e-16
 23579.3000 4.43193e-15 2.56985e-16
 23585.8000 4.49541e-15 2.59777e-16
 23592.3000 4.52421e-15 2.59541e-16
 23598.7000 4.69606e-15 2.64602e-16
 23605.2000 4.63610e-15 2.61137e-16
 23611.7000 4.72243e-15 2.63597e-16
 23618.1000 4.64020e-15 2.61374e-16
 23624.6000 4.74505e-15 2.64738e-16
 23631.1000 4.65750e-15 2.62579e-16
 23637.6000 4.77809e-15 2.66634e-16
 23644.0000 4.68977e-15 2.63996e-16
 23650.5000 4.76787e-15 2.66276e-16
 23657.0000 4.70654e-15 2.64430e-16
 23663.5000 4.74761e-15 2.66126e-16
 23669.9000 4.65355e-15 2.65928e-16
 23676.4000 4.74308e-15 2.69739e-16
 23682.9000 4.70857e-15 2.68969e-16
 23689.3000 4.72039e-15 2.70730e-16
 23695.8000 4.60964e-15 2.72961e-16
 23702.3000 4.52106e-15 2.76410e-16
 23708.8000 4.37463e-15 2.77242e-16
 23715.2000 4.45832e-15 2.79457e-16
 23721.7000 4.53507e-15 2.75458e-16
 23728.2000 4.55877e-15 2.70881e-16
 23734.7000 4.61416e-15 2.67683e-16
 23741.1000 4.64446e-15 2.66849e-16
 23747.6000 4.56081e-15 2.63448e-16
 23754.1000 4.67182e-15 2.68261e-16
 23760.5000 4.48866e-15 2.63750e-16
 23767.0000 4.43971e-15 2.64338e-16
 23773.5000 4.37006e-15 2.61631e-16
 23780.0000 4.44047e-15 2.62939e-16
 23786.4000 4.30918e-15 2.54573e-16
 23792.9000 4.34481e-15 2.54881e-16
 23799.4000 4.20276e-15 2.48587e-16
 23805.9000 4.27179e-15 2.50533e-16
 23812.3000 4.18526e-15 2.48051e-16
 23818.8000 4.26771e-15 2.51434e-16
 23825.3000 4.14962e-15 2.49781e-16
 23831.7000 4.04814e-15 2.47523e-16
 23838.2000 3.91110e-15 2.44437e-16
 23844.7000 3.96260e-15 2.46518e-16
 23851.2000 3.96257e-15 2.43381e-16
 23857.6000 3.92363e-15 2.41557e-16
 23864.1000 3.78672e-15 2.37249e-16
 23870.6000 3.81897e-15 2.38757e-16
 23877.1000 3.73760e-15 2.33104e-16
 23883.5000 3.71546e-15 2.31572e-16
 23890.0000 3.62951e-15 2.26002e-16
 23896.5000 3.61643e-15 2.25413e-16
 23903.0000 3.42736e-15 2.18879e-16
 23909.4000 3.45134e-15 2.20562e-16
 23915.9000 3.40840e-15 2.21062e-16
 23922.4000 3.49770e-15 2.29827e-16
 23928.8000 3.27985e-15 2.10603e-16
 23935.3000 3.23440e-15 2.09107e-16
 23941.8000 3.14866e-15 2.04729e-16
 23948.3000 3.09635e-15 2.03711e-16
 23954.7000 3.02683e-15 2.02801e-16
 23961.2000 3.03718e-15 2.04687e-16
 23967.7000 2.89370e-15 1.98418e-16
 23974.2000 2.89866e-15 1.98424e-16
 23980.6000 2.81728e-15 1.92605e-16
 23987.1000 2.83660e-15 1.92374e-16
 23993.6000 2.67966e-15 1.85324e-16
 24000.0000 2.70200e-15 1.85699e-16
 24006.5000 2.58679e-15 1.79419e-16
 24013.0000 2.57858e-15 1.79682e-16
 24019.5000 2.45781e-15 1.73864e-16
 24025.9000 2.52723e-15 1.76631e-16
 24032.4000 2.38095e-15 1.74045e-16
 24038.9000 2.28994e-15 1.73145e-16
 24045.4000 2.24522e-15 1.70801e-16
 24051.8000 2.24824e-15 1.70058e-16
 24058.3000 2.20810e-15 1.67717e-16
 24064.8000 2.21155e-15 1.70517e-16
 24071.2000 2.03825e-15 1.61861e-16
 24077.7000 2.09579e-15 1.63271e-16
 24084.2000 2.05260e-15 1.59968e-16
 24090.7000 2.01377e-15 1.59615e-16
 24097.1000 1.93505e-15 1.56785e-16
 24103.6000 1.91719e-15 1.55719e-16
 24110.1000 1.90631e-15 1.52558e-16
 24116.6000 1.88827e-15 1.52149e-16
 24123.0000 1.81994e-15 1.48533e-16
 24129.5000 1.84635e-15 1.50910e-16
 24136.0000 1.82249e-15 1.51494e-16
 24142.4000 1.83710e-15 1.53712e-16
 24148.9000 1.71193e-15 1.50491e-16
 24155.4000 1.61260e-15 1.49699e-16
 24161.9000 1.54141e-15 1.46886e-16
 24168.3000 1.59922e-15 2.46284e-16
 24174.8000 1.66214e-15 1.66490e-16
 24181.3000 1.60343e-15 1.49480e-16
 24187.8000 1.55605e-15 1.52033e-16
 24194.2000 1.64009e-15 1.54050e-16
 24200.7000 1.56644e-15 1.43832e-16
 24207.2000 1.62491e-15 1.41824e-16
 24213.6000 1.72772e-15 1.44674e-16
 24220.1000 1.71948e-15 1.44334e-16
 24226.6000 1.67534e-15 1.43030e-16
 24233.1000 1.65625e-15 1.46463e-16
 24239.5000 1.62490e-15 1.43438e-16
 24246.0000 1.60207e-15 1.42316e-16
 24252.5000 1.65231e-15 1.44919e-16
 24259.0000 1.68813e-15 1.47897e-16
 24265.4000 1.68412e-15 1.48440e-16
 24271.9000 1.79539e-15 1.50428e-16
 24278.4000 1.76045e-15 1.46866e-16
 24284.8000 1.83485e-15 1.50304e-16
 24291.3000 1.87152e-15 1.52568e-16
 24297.8000 1.86578e-15 1.51662e-16
 24304.3000 1.91837e-15 1.54600e-16
 24310.7000 2.00346e-15 1.59707e-16
 24317.2000 1.98502e-15 1.60318e-16
 24323.7000 2.03717e-15 1.65500e-16
 24330.2000 2.06717e-15 1.69488e-16
 24336.6000 2.06373e-15 1.75937e-16
 24343.1000 2.12423e-15 1.87404e-16
 24349.6000 2.04337e-15 1.93682e-16
 24356.0000 2.05897e-15 2.01244e-16
 24362.5000 2.12209e-15 2.02034e-16
 24369.0000 2.24678e-15 1.95340e-16
 24375.5000 2.41974e-15 1.90551e-16
 24381.9000 2.49577e-15 1.85693e-16
 24388.4000 2.49695e-15 1.83629e-16
 24394.9000 2.48915e-15 1.83959e-16
 24401.4000 2.60025e-15 1.89869e-16
 24407.8000 2.72635e-15 1.95976e-16
 24414.3000 2.79125e-15 2.05473e-16
 24420.8000 2.83326e-15 2.01582e-16
 24427.2000 2.80083e-15 2.03164e-16
 24433.7000 2.83146e-15 2.04367e-16
 24440.2000 2.87835e-15 2.08587e-16
 24446.7000 2.89803e-15 2.14415e-16
 24453.1000 3.01145e-15 2.27332e-16
 24459.6000 2.93873e-15 2.35676e-16
 24466.1000 2.88515e-15 2.35724e-16
 24472.6000 3.01178e-15 2.33721e-16
 24479.0000 3.10511e-15 2.36343e-16
 24485.5000 3.34198e-15 2.41027e-16
 24492.0000 3.28384e-15 2.43461e-16
 24498.5000 3.32746e-15 2.51536e-16
 24504.9000 3.18534e-15 2.57377e-16
 24511.4000 3.20547e-15 2.56821e-16
 24517.9000 3.34771e-15 2.56930e-16
 24524.3000 3.57280e-15 2.55380e-16
 24530.8000 3.73634e-15 2.62019e-16
 24537.3000 3.70108e-15 2.58887e-16
 24543.8000 3.55267e-15 2.53224e-16
 24550.2000 3.70370e-15 2.54945e-16
 24556.7000 3.81134e-15 2.56082e-16
 24563.2000 3.92376e-15 2.54392e-16
 24569.7000 3.93820e-15 2.53880e-16
 24576.1000 4.09408e-15 2.57168e-16
 24582.6000 4.03448e-15 2.59015e-16
 24589.1000 4.11480e-15 2.62082e-16
 24595.5000 4.11471e-15 2.63092e-16
 24602.0000 4.11519e-15 2.61973e-16
 24608.5000 4.12836e-15 2.69346e-16
 24615.0000 4.13148e-15 2.76234e-16
 24621.4000 4.01803e-15 2.81871e-16
 24627.9000 3.94116e-15 2.83461e-16
 24634.4000 4.04102e-15 2.84616e-16
 24640.9000 4.13060e-15 2.82082e-16
 24647.3000 4.20405e-15 2.75975e-16
 24653.8000 4.33841e-15 2.76596e-16
 24660.3000 4.27706e-15 2.72406e-16
 24666.7000 4.34321e-15 2.76809e-16
 24673.2000 4.25387e-15 2.78494e-16
 24679.7000 4.28534e-15 2.80602e-16
 24686.2000 4.32040e-15 2.79386e-16
 24692.6000 4.36522e-15 2.80921e-16
 24699.1000 4.33590e-15 2.80245e-16
 24705.6000 4.45658e-15 2.97856e-16
 24712.1000 4.43677e-15 3.17474e-16
 24718.5000 4.37456e-15 3.40329e-16
 24725.0000 3.79886e-15 3.28802e-16
 24731.5000 3.68971e-15 3.06828e-16
 24737.9000 3.92465e-15 2.89466e-16
 24744.4000 4.26086e-15 2.88272e-16
 24750.9000 4.24623e-15 2.80932e-16
 24757.4000 4.27008e-15 2.80737e-16
 24763.8000 4.12928e-15 2.72281e-16
 24770.3000 4.27445e-15 2.81877e-16
 24776.8000 4.16881e-15 2.75842e-16
 24783.3000 4.15380e-15 2.80967e-16
 24789.7000 3.97812e-15 2.82776e-16
 24796.2000 4.06547e-15 2.99405e-16
 24802.7000 3.94513e-15 3.02359e-16
 24809.1000 3.92014e-15 3.07488e-16
 24815.6000 3.68384e-15 2.89282e-16
 24822.1000 3.82418e-15 2.90205e-16
 24828.6000 4.04594e-15 3.05626e-16
 24835.0000 4.11113e-15 3.23156e-16
 24841.5000 3.57643e-15 3.00472e-16
 24848.0000 3.40464e-15 2.85308e-16
 24854.5000 3.58931e-15 2.79012e-16
 24860.9000 3.72323e-15 2.90218e-16
 24867.4000 3.66541e-15 3.03253e-16
 24873.9000 3.64478e-15 3.20375e-16
 24880.3000 3.32277e-15 3.06607e-16
 24886.8000 3.11357e-15 2.89930e-16
 24893.3000 3.19913e-15 2.72076e-16
 24899.8000 3.43789e-15 2.75339e-16
 24906.2000 3.21983e-15 2.65276e-16
 24912.7000 3.35787e-15 2.74335e-16
 24919.2000 3.03747e-15 2.69838e-16
 24925.7000 3.05759e-15 2.76351e-16
 24932.1000 3.06842e-15 2.81886e-16
 24938.6000 3.07470e-15 2.97351e-16
 24945.1000 2.93351e-15 3.02765e-16
 24951.5000 2.63912e-15 2.86747e-16
 24958.0000 2.96758e-15 2.78706e-16
 24964.5000 3.00220e-15 2.59388e-16
 24971.0000 2.97052e-15 2.45195e-16
 24977.4000 2.91457e-15 2.36506e-16
 24983.9000 2.85807e-15 2.31665e-16
 24990.4000 2.71167e-15 2.24630e-16
 24996.9000 2.60367e-15 2.16224e-16
 25003.3000 2.51577e-15 2.12665e-16
 25009.8000 2.53651e-15 2.15220e-16
 25016.3000 2.74781e-15 2.38664e-16
 25022.7000 2.51265e-15 2.44345e-16
 25029.2000 2.24063e-15 2.37114e-16
 25035.7000 2.03278e-15 2.31410e-16
 25042.2000 2.21409e-15 2.39326e-16
 25048.6000 2.19837e-15 2.39079e-16
 25055.1000 2.04576e-15 2.48208e-16
 25061.6000 1.90676e-15 2.30753e-16
 25068.1000 2.04723e-15 2.21905e-16
 25074.5000 1.98284e-15 2.03305e-16
 25081.0000 1.88881e-15 1.93584e-16
 25087.5000 1.85820e-15 1.97503e-16
 25094.0000 1.82199e-15 2.10957e-16
 25100.4000 1.81014e-15 2.32135e-16
 25106.9000 1.88969e-15 2.47016e-16
 25113.4000 1.87099e-15 2.57297e-16
 25119.8000 1.58422e-15 2.18448e-16
 25126.3000 1.46325e-15 2.06321e-16
 25132.8000 1.76561e-15 2.17222e-16
 25139.3000 1.39661e-15 1.94783e-16
 25145.7000 1.87131e-15 2.57241e-16
 25152.2000 2.43661e-15 3.80436e-16
 25158.7000 2.29166e-15 4.54202e-16
 25165.2000 1.33633e-15 3.54768e-16
 25171.6000 1.16890e-15 2.41506e-16
 25178.1000 1.26464e-15 2.70678e-16
 25184.6000 1.94622e-15 2.55599e-16
 25191.0000 1.32301e-15 2.06775e-16
 25197.5000 1.15828e-15 1.82774e-16
 25204.0000 1.45498e-15 1.96485e-16
 25210.5000 1.19956e-15 1.90505e-16
 25216.9000 1.17495e-15 1.76308e-16
 25223.4000 1.23093e-15 1.90544e-16
 25229.9000 1.22091e-15 2.03958e-16
 25236.4000 1.25329e-15 2.43634e-16
